IUPAC'89, '92, '97
values from Moortgat and Schneider, unpublished
wavelength, nm
	xsection, 10-20 cm2
240	0.0640
241	0.0560
242	0.1050
243	0.1150
244	0.0820
245	0.1030
246	0.0980
247	0.1350
248	0.1910
249	0.2820
250	0.2050
251	0.1700
252	0.2880
253	0.2550
254	0.2550
255	0.3600
256	0.5090
257	0.3390
258	0.2260
259	0.5040
260	0.5050
261	0.5490
262	0.5200
263	0.9330
264	0.8230
265	0.4300
266	0.4950
267	1.2390
268	1.1100
269	0.8780
270	0.9360
271	1.7890
272	1.2270
273	0.6450
274	0.6560
275	2.2320
276	2.4160
277	1.4020
278	1.0500
279	2.5480
280	2.0830
281	1.4750
282	0.8810
283	1.0660
284	4.4920
285	3.5920
286	1.9620
287	1.2950
288	3.3560
289	2.8380
290	1.3040
291	1.7460
292	0.8320
293	3.7270
294	6.5350
295	3.9500
296	2.3330
297	1.5130
298	4.0370
299	2.8710
300	0.8710
301	1.7150
302	1.0640
303	3.2010
304	6.9020
305	4.9140
306	4.6320
307	2.1000
308	1.4940
309	3.4070
310	1.9500
311	0.5210
312	1.1200
313	1.1160
314	4.7470
315	5.2470
316	2.8990
317	5.3730
318	2.9750
319	0.9180
320	1.2620
321	1.5290
322	0.6690
323	0.3450
324	0.8160
325	1.8500
326	5.9500
327	3.4850
328	1.0870
329	3.3530
330	3.3210
331	1.0730
332	0.2890
333	0.2150
334	0.1710
335	0.1430
336	0.1940
337	0.4170
338	2.3600
339	4.7120
340	2.4810
341	0.7590
342	0.6810
343	1.9530
344	1.1370
345	0.3230
346	0.1130
347	0.0660
348	0.1220
349	0.0320
350	0.0380
351	0.1040
352	0.7130
353	2.2120
354	1.5360
355	0.6760
356	0.1350
357	0.0360
358	0.0057
359	0.0580
360	0.0820
