EXTRA TERRESTRIAL SOLAR SPECTRUM 
De Luisi, JGR 80, 345-354, 1975
nm     Wm-2nm-1
280.    0.850E-01
281.    1.410E-01
282.    2.680E-01
283.    3.160E-01
284.    3.080E-01
285.    1.650E-01
286.    2.360E-01
287.    3.600E-01
288.    3.110E-01
289.    3.850E-01
290.    5.550E-01
291.    6.050E-01
292.    5.580E-01
293.    5.320E-01
294.    5.280E-01
295.    5.260E-01
296.    5.640E-01
297.    4.820E-01
298.    4.590E-01
299.    4.258E-01
300.    4.364E-01
301.    4.588E-01
302.    4.720E-01
303.    5.994E-01
304.    6.292E-01
305.    6.570E-01
306.    6.066E-01
307.    6.370E-01
308.    7.000E-01
309.    6.156E-01
310.    5.828E-01
311.    8.496E-01
312.    7.688E-01
313.    7.952E-01
314.    7.902E-01
315.    7.632E-01
316.    6.914E-01
317.    8.348E-01
318.    8.176E-01
319.    7.786E-01
320.    8.580E-01
321.    8.388E-01
322.    8.230E-01
323.    7.026E-01
324.    8.324E-01
325.    9.012E-01
326.    1.064E+00
327.    1.085E+00
328.    1.005E+00
329.    1.091E+00
330.    1.170E+00
331.    1.041E+00
332.    1.027E+00
333.    1.011E+00
334.    1.010E+00
335.    1.048E+00
336.    9.314E-01
337.    8.914E-01
338.    9.824E-01
339.    1.007E+00
340.    1.101E+00
341.    1.018E+00
342.    1.057E+00
343.    1.103E+00
344.    8.992E-01
345.    9.786E-01
346.    9.978E-01
347.    1.011E+00
348.    9.728E-01
349.    9.510E-01
350.    1.046E+00
351.    1.087E+00
352.    1.011E+00
353.    1.017E+00
354.    1.179E+00
355.    1.205E+00
356.    1.095E+00
357.    9.224E-01
358.    8.266E-01
359.    9.044E-01
360.    1.171E+00
361.    9.982E-01
362.    9.984E-01
363.    1.112E+00
364.    1.112E+00
365.    1.106E+00
366.    1.326E+00
367.    1.338E+00
368.    1.239E+00
369.    1.269E+00
370.    1.341E+00
371.    1.258E+00
372.    1.191E+00
373.    1.088E+00
374.    9.836E-01
375.    1.059E+00
376.    1.163E+00
377.    1.260E+00
378.    1.454E+00
379.    1.229E+00
380.    1.193E+00
381.    1.270E+00
382.    9.666E-01
383.    7.608E-01
384.    8.858E-01
385.    1.121E+00
386.    1.052E+00
387.    1.071E+00
388.    1.052E+00
389.    1.106E+00
390.    1.288E+00
391.    1.384E+00
392.    1.255E+00
393.    7.088E-01
394.    9.018E-01
395.    1.332E+00
396.    1.140E+00
397.    8.004E-01
398.    1.425E+00
399.    1.665E+00
400.    1.687E+00
