LOWTRAN solar irradiance
Scaled and reordered (using LOWSUN.BAS) from data sent by John Bahr
Wvl(nm) Irrad(W m-2 nm-1)
   173.974   1.0174E-03
   174.004   1.0188E-03
   174.034   1.0199E-03
   174.064   1.0223E-03
   174.095   1.0341E-03
   174.125   1.0627E-03
   174.155   1.1037E-03
   174.186   1.1399E-03
   174.216   1.1565E-03
   174.246   1.1572E-03
   174.277   1.1564E-03
   174.307   1.1586E-03
   174.338   1.1617E-03
   174.368   1.1629E-03
   174.398   1.1539E-03
   174.429   1.1400E-03
   174.459   1.1489E-03
   174.490   1.1824E-03
   174.520   1.2040E-03
   174.551   1.2000E-03
   174.581   1.1936E-03
   174.611   1.2013E-03
   174.642   1.2061E-03
   174.672   1.1791E-03
   174.703   1.1195E-03
   174.734   1.0577E-03
   174.764   1.0251E-03
   174.795   1.0284E-03
   174.825   1.0523E-03
   174.856   1.0797E-03
   174.886   1.1009E-03
   174.917   1.1120E-03
   174.948   1.1141E-03
   174.978   1.1183E-03
   175.009   1.1428E-03
   175.039   1.1868E-03
   175.070   1.2291E-03
   175.101   1.2590E-03
   175.131   1.2817E-03
   175.162   1.2987E-03
   175.193   1.3056E-03
   175.223   1.3002E-03
   175.254   1.2856E-03
   175.285   1.2731E-03
   175.316   1.2769E-03
   175.346   1.2980E-03
   175.377   1.3261E-03
   175.408   1.3548E-03
   175.439   1.3861E-03
   175.469   1.4188E-03
   175.500   1.4408E-03
   175.531   1.4417E-03
   175.562   1.4268E-03
   175.593   1.4087E-03
   175.623   1.3933E-03
   175.654   1.3813E-03
   175.685   1.3779E-03
   175.716   1.3908E-03
   175.747   1.4119E-03
   175.778   1.4221E-03
   175.809   1.4185E-03
   175.840   1.4229E-03
   175.871   1.4506E-03
   175.901   1.4781E-03
   175.932   1.4760E-03
   175.963   1.4544E-03
   175.994   1.4399E-03
   176.025   1.4398E-03
   176.056   1.4465E-03
   176.087   1.4606E-03
   176.118   1.4902E-03
   176.149   1.5282E-03
   176.180   1.5521E-03
   176.211   1.5443E-03
   176.243   1.4950E-03
   176.274   1.4142E-03
   176.305   1.3437E-03
   176.336   1.3159E-03
   176.367   1.3224E-03
   176.398   1.3482E-03
   176.429   1.3800E-03
   176.460   1.3884E-03
   176.491   1.3588E-03
   176.523   1.3091E-03
   176.554   1.2611E-03
   176.585   1.2348E-03
   176.616   1.2605E-03
   176.647   1.3588E-03
   176.678   1.5115E-03
   176.710   1.6623E-03
   176.741   1.7546E-03
   176.772   1.7678E-03
   176.803   1.7186E-03
   176.835   1.6411E-03
   176.866   1.5699E-03
   176.897   1.5312E-03
   176.929   1.5290E-03
   176.960   1.5450E-03
   176.991   1.5726E-03
   177.022   1.6222E-03
   177.054   1.6874E-03
   177.085   1.7540E-03
   177.117   1.8193E-03
   177.148   1.8663E-03
   177.179   1.8824E-03
   177.211   1.9002E-03
   177.242   1.9573E-03
   177.274   2.0384E-03
   177.305   2.0909E-03
   177.336   2.0872E-03
   177.368   2.0451E-03
   177.399   1.9784E-03
   177.431   1.8771E-03
   177.462   1.7410E-03
   177.494   1.5970E-03
   177.525   1.4834E-03
   177.557   1.4252E-03
   177.588   1.4237E-03
   177.620   1.4616E-03
   177.651   1.5142E-03
   177.683   1.5583E-03
   177.715   1.5818E-03
   177.746   1.5924E-03
   177.778   1.6077E-03
   177.809   1.6389E-03
   177.841   1.6965E-03
   177.873   1.7832E-03
   177.904   1.8717E-03
   177.936   1.9203E-03
   177.968   1.9218E-03
   177.999   1.9173E-03
   178.031   1.9430E-03
   178.063   1.9807E-03
   178.094   1.9907E-03
   178.126   1.9548E-03
   178.158   1.8782E-03
   178.190   1.7900E-03
   178.221   1.7330E-03
   178.253   1.7303E-03
   178.285   1.7716E-03
   178.317   1.8289E-03
   178.348   1.8747E-03
   178.380   1.8975E-03
   178.412   1.9038E-03
   178.444   1.9018E-03
   178.476   1.8939E-03
   178.508   1.8887E-03
   178.540   1.9019E-03
   178.571   1.9357E-03
   178.603   1.9635E-03
   178.635   1.9588E-03
   178.667   1.9300E-03
   178.699   1.9049E-03
   178.731   1.8977E-03
   178.763   1.9023E-03
   178.795   1.9088E-03
   178.827   1.9194E-03
   178.859   1.9461E-03
   178.891   2.0001E-03
   178.923   2.0685E-03
   178.955   2.1095E-03
   178.987   2.1062E-03
   179.019   2.0953E-03
   179.051   2.1086E-03
   179.083   2.1347E-03
   179.115   2.1481E-03
   179.147   2.1385E-03
   179.179   2.0980E-03
   179.211   2.0124E-03
   179.244   1.9015E-03
   179.276   1.8120E-03
   179.308   1.7519E-03
   179.340   1.7036E-03
   179.372   1.6708E-03
   179.404   1.6656E-03
   179.437   1.6853E-03
   179.469   1.7188E-03
   179.501   1.7618E-03
   179.533   1.8143E-03
   179.565   1.8635E-03
   179.598   1.8844E-03
   179.630   1.8693E-03
   179.662   1.8465E-03
   179.695   1.8470E-03
   179.727   1.8726E-03
   179.759   1.9058E-03
   179.791   1.9312E-03
   179.824   1.9454E-03
   179.856   1.9537E-03
   179.888   1.9613E-03
   179.921   1.9699E-03
   179.953   1.9799E-03
   179.986   1.9930E-03
   180.018   2.0121E-03
   180.050   2.0400E-03
   180.083   2.0754E-03
   180.115   2.1101E-03
   180.148   2.1343E-03
   180.180   2.1481E-03
   180.213   2.1581E-03
   180.245   2.1588E-03
   180.278   2.1460E-03
   180.310   2.1396E-03
   180.343   2.1461E-03
   180.375   2.1438E-03
   180.408   2.1321E-03
   180.440   2.1356E-03
   180.473   2.1657E-03
   180.505   2.2103E-03
   180.538   2.2481E-03
   180.571   2.2654E-03
   180.603   2.2580E-03
   180.636   2.2171E-03
   180.668   2.1391E-03
   180.701   2.0729E-03
   180.734   2.1436E-03
   180.766   2.4473E-03
   180.799   2.8859E-03
   180.832   3.2206E-03
   180.865   3.2984E-03
   180.897   3.1288E-03
   180.930   2.8119E-03
   180.963   2.4726E-03
   180.995   2.2343E-03
   181.028   2.1641E-03
   181.061   2.2148E-03
   181.094   2.2783E-03
   181.127   2.2895E-03
   181.159   2.2574E-03
   181.192   2.2170E-03
   181.225   2.1899E-03
   181.258   2.1864E-03
   181.291   2.1955E-03
   181.324   2.1878E-03
   181.357   2.1520E-03
   181.389   2.0963E-03
   181.422   2.0361E-03
   181.455   2.0043E-03
   181.488   2.0301E-03
   181.521   2.0871E-03
   181.554   2.1119E-03
   181.587   2.1418E-03
   181.620   2.3600E-03
   181.653   2.9059E-03
   181.686   3.7071E-03
   181.719   4.5135E-03
   181.752   5.0295E-03
   181.785   5.0044E-03
   181.818   4.4006E-03
   181.851   3.5757E-03
   181.884   2.9720E-03
   181.917   2.6809E-03
   181.951   2.5773E-03
   181.984   2.5455E-03
   182.017   2.4872E-03
   182.050   2.3855E-03
   182.083   2.3162E-03
   182.116   2.3365E-03
   182.149   2.4284E-03
   182.183   2.5276E-03
   182.216   2.5809E-03
   182.249   2.5931E-03
   182.282   2.6171E-03
   182.315   2.6927E-03
   182.349   2.8001E-03
   182.382   2.8990E-03
   182.415   2.9774E-03
   182.448   3.0175E-03
   182.482   2.9958E-03
   182.515   2.9290E-03
   182.548   2.8466E-03
   182.582   2.7553E-03
   182.615   2.6616E-03
   182.648   2.5889E-03
   182.682   2.5564E-03
   182.715   2.5532E-03
   182.749   2.5445E-03
   182.782   2.5100E-03
   182.815   2.4684E-03
   182.849   2.4546E-03
   182.882   2.4840E-03
   182.916   2.5431E-03
   182.949   2.6024E-03
   182.983   2.6305E-03
   183.016   2.6124E-03
   183.050   2.5681E-03
   183.083   2.5351E-03
   183.117   2.5341E-03
   183.150   2.5663E-03
   183.184   2.6218E-03
   183.217   2.6830E-03
   183.251   2.7374E-03
   183.284   2.7705E-03
   183.318   2.7650E-03
   183.352   2.7366E-03
   183.385   2.7303E-03
   183.419   2.7732E-03
   183.453   2.8550E-03
   183.486   2.9398E-03
   183.520   2.9911E-03
   183.554   2.9953E-03
   183.587   2.9536E-03
   183.621   2.8707E-03
   183.655   2.7729E-03
   183.688   2.7138E-03
   183.722   2.7288E-03
   183.756   2.7894E-03
   183.790   2.8374E-03
   183.824   2.8517E-03
   183.857   2.8609E-03
   183.891   2.9114E-03
   183.925   3.0064E-03
   183.959   3.0681E-03
   183.993   3.0103E-03
   184.026   2.8508E-03
   184.060   2.6891E-03
   184.094   2.5524E-03
   184.128   2.3973E-03
   184.162   2.2637E-03
   184.196   2.2405E-03
   184.230   2.3320E-03
   184.264   2.4682E-03
   184.298   2.5823E-03
   184.332   2.6427E-03
   184.366   2.6464E-03
   184.400   2.6196E-03
   184.434   2.6069E-03
   184.468   2.6216E-03
   184.502   2.6128E-03
   184.536   2.5361E-03
   184.570   2.4296E-03
   184.604   2.3606E-03
   184.638   2.3479E-03
   184.672   2.3551E-03
   184.706   2.3248E-03
   184.740   2.2233E-03
   184.775   2.0816E-03
   184.809   1.9843E-03
   184.843   1.9891E-03
   184.877   2.0850E-03
   184.911   2.2444E-03
   184.945   2.4508E-03
   184.980   2.6495E-03
   185.014   2.7226E-03
   185.048   2.5856E-03
   185.082   2.3257E-03
   185.117   2.1482E-03
   185.151   2.1301E-03
   185.185   2.1811E-03
   185.219   2.2245E-03
   185.254   2.2510E-03
   185.288   2.2953E-03
   185.322   2.3959E-03
   185.357   2.5324E-03
   185.391   2.6952E-03
   185.426   2.9094E-03
   185.460   3.1173E-03
   185.494   3.2364E-03
   185.529   3.2661E-03
   185.563   3.2391E-03
   185.598   3.2088E-03
   185.632   3.2128E-03
   185.667   3.1990E-03
   185.701   3.1062E-03
   185.736   2.9659E-03
   185.770   2.8569E-03
   185.805   2.8128E-03
   185.839   2.8111E-03
   185.874   2.8165E-03
   185.908   2.8024E-03
   185.943   2.7667E-03
   185.977   2.7424E-03
   186.012   2.7626E-03
   186.047   2.8121E-03
   186.081   2.8450E-03
   186.116   2.8500E-03
   186.150   2.8590E-03
   186.185   2.8903E-03
   186.220   2.9316E-03
   186.254   2.9854E-03
   186.289   3.0596E-03
   186.324   3.1178E-03
   186.359   3.1106E-03
   186.393   3.0552E-03
   186.428   3.0025E-03
   186.463   2.9505E-03
   186.498   2.8967E-03
   186.532   2.8638E-03
   186.567   2.8432E-03
   186.602   2.8515E-03
   186.637   2.9483E-03
   186.672   3.1230E-03
   186.706   3.2845E-03
   186.741   3.4020E-03
   186.776   3.5212E-03
   186.811   3.6251E-03
   186.846   3.6608E-03
   186.881   3.6494E-03
   186.916   3.6410E-03
   186.951   3.6397E-03
   186.986   3.6373E-03
   187.021   3.6422E-03
   187.056   3.6439E-03
   187.091   3.6578E-03
   187.126   3.7268E-03
   187.161   3.8024E-03
   187.196   3.8023E-03
   187.231   3.7290E-03
   187.266   3.6238E-03
   187.301   3.5257E-03
   187.336   3.4804E-03
   187.371   3.5112E-03
   187.406   3.5872E-03
   187.441   3.6448E-03
   187.477   3.6396E-03
   187.512   3.5820E-03
   187.547   3.5339E-03
   187.582   3.5345E-03
   187.617   3.5478E-03
   187.652   3.5406E-03
   187.688   3.5258E-03
   187.723   3.5165E-03
   187.758   3.5155E-03
   187.793   3.5151E-03
   187.829   3.4972E-03
   187.864   3.4602E-03
   187.899   3.4188E-03
   187.935   3.3807E-03
   187.970   3.3482E-03
   188.005   3.3326E-03
   188.041   3.3313E-03
   188.076   3.3222E-03
   188.111   3.3039E-03
   188.147   3.2887E-03
   188.182   3.2824E-03
   188.218   3.3222E-03
   188.253   3.4693E-03
   188.288   3.6940E-03
   188.324   3.8570E-03
   188.359   3.8923E-03
   188.395   3.8856E-03
   188.430   3.8978E-03
   188.466   3.8689E-03
   188.501   3.7944E-03
   188.537   3.7660E-03
   188.573   3.7934E-03
   188.608   3.8098E-03
   188.644   3.8028E-03
   188.679   3.8148E-03
   188.715   3.8518E-03
   188.750   3.8654E-03
   188.786   3.8260E-03
   188.822   3.7675E-03
   188.857   3.7529E-03
   188.893   3.8192E-03
   188.929   3.9379E-03
   188.964   4.0255E-03
   189.000   4.0374E-03
   189.036   4.0078E-03
   189.072   3.9956E-03
   189.107   4.0467E-03
   189.143   4.1749E-03
   189.179   4.3474E-03
   189.215   4.5130E-03
   189.251   4.6101E-03
   189.286   4.5131E-03
   189.322   4.1958E-03
   189.358   3.9475E-03
   189.394   3.9680E-03
   189.430   4.0993E-03
   189.466   4.2231E-03
   189.502   4.2948E-03
   189.538   4.2506E-03
   189.573   4.1623E-03
   189.609   4.1235E-03
   189.645   4.1302E-03
   189.681   4.1421E-03
   189.717   4.0995E-03
   189.753   3.9671E-03
   189.789   3.7890E-03
   189.825   3.6381E-03
   189.861   3.5375E-03
   189.897   3.4929E-03
   189.934   3.5357E-03
   189.970   3.6708E-03
   190.006   3.8377E-03
   190.042   3.9525E-03
   190.078   3.9598E-03
   190.114   3.8589E-03
   190.150   3.7344E-03
   190.186   3.7099E-03
   190.223   3.8127E-03
   190.259   3.9457E-03
   190.295   4.0405E-03
   190.331   4.1389E-03
   190.367   4.2718E-03
   190.404   4.3738E-03
   190.440   4.3742E-03
   190.476   4.3061E-03
   190.512   4.2549E-03
   190.549   4.2149E-03
   190.585   4.1462E-03
   190.621   4.1060E-03
   190.658   4.1452E-03
   190.694   4.2259E-03
   190.730   4.2947E-03
   190.767   4.3358E-03
   190.803   4.3959E-03
   190.840   4.5222E-03
   190.876   4.6781E-03
   190.913   4.7938E-03
   190.949   4.8206E-03
   190.985   4.6859E-03
   191.022   4.3897E-03
   191.058   4.1495E-03
   191.095   4.1084E-03
   191.131   4.1462E-03
   191.168   4.1978E-03
   191.205   4.2973E-03
   191.241   4.3900E-03
   191.278   4.4066E-03
   191.314   4.3830E-03
   191.351   4.3903E-03
   191.388   4.4314E-03
   191.424   4.4812E-03
   191.461   4.5586E-03
   191.498   4.6828E-03
   191.534   4.8471E-03
   191.571   5.0065E-03
   191.608   5.0377E-03
   191.644   4.9283E-03
   191.681   4.8334E-03
   191.718   4.7858E-03
   191.755   4.7033E-03
   191.791   4.5905E-03
   191.828   4.5040E-03
   191.865   4.4661E-03
   191.902   4.4828E-03
   191.939   4.5534E-03
   191.975   4.6549E-03
   192.012   4.7686E-03
   192.049   4.8880E-03
   192.086   5.0156E-03
   192.123   5.1537E-03
   192.160   5.2505E-03
   192.197   5.2229E-03
   192.234   5.0736E-03
   192.271   4.9252E-03
   192.308   4.8957E-03
   192.345   4.9527E-03
   192.382   4.9596E-03
   192.419   4.8713E-03
   192.456   4.7725E-03
   192.493   4.7132E-03
   192.530   4.6861E-03
   192.567   4.7293E-03
   192.604   4.8236E-03
   192.641   4.8453E-03
   192.678   4.7666E-03
   192.715   4.6981E-03
   192.753   4.7059E-03
   192.790   4.7624E-03
   192.827   4.8392E-03
   192.864   4.8999E-03
   192.901   4.8855E-03
   192.938   4.7781E-03
   192.976   4.5999E-03
   193.013   4.3558E-03
   193.050   4.0573E-03
   193.087   3.7372E-03
   193.125   3.4535E-03
   193.162   3.3002E-03
   193.199   3.2576E-03
   193.237   3.2284E-03
   193.274   3.2659E-03
   193.311   3.4292E-03
   193.349   3.5876E-03
   193.386   3.6281E-03
   193.424   3.6296E-03
   193.461   3.6534E-03
   193.498   3.5949E-03
   193.536   3.4144E-03
   193.573   3.2596E-03
   193.611   3.1994E-03
   193.648   3.1349E-03
   193.686   3.1028E-03
   193.723   3.2906E-03
   193.761   3.6625E-03
   193.798   4.0151E-03
   193.836   4.3168E-03
   193.874   4.6348E-03
   193.911   4.9315E-03
   193.949   5.1279E-03
   193.986   5.2227E-03
   194.024   5.2635E-03
   194.062   5.2989E-03
   194.099   5.3963E-03
   194.137   5.6431E-03
   194.175   6.0135E-03
   194.212   6.3024E-03
   194.250   6.4082E-03
   194.288   6.4564E-03
   194.326   6.4968E-03
   194.363   6.4300E-03
   194.401   6.2541E-03
   194.439   6.0754E-03
   194.477   5.9674E-03
   194.515   5.9618E-03
   194.553   5.9715E-03
   194.590   5.8790E-03
   194.628   5.7428E-03
   194.666   5.6651E-03
   194.704   5.6987E-03
   194.742   5.9241E-03
   194.780   6.3107E-03
   194.818   6.6238E-03
   194.856   6.7185E-03
   194.894   6.6965E-03
   194.932   6.6325E-03
   194.970   6.4525E-03
   195.008   6.1703E-03
   195.046   5.9630E-03
   195.084   5.8933E-03
   195.122   5.8245E-03
   195.160   5.6819E-03
   195.198   5.4935E-03
   195.236   5.3256E-03
   195.274   5.2981E-03
   195.313   5.4452E-03
   195.351   5.7421E-03
   195.389   6.1097E-03
   195.427   6.3271E-03
   195.465   6.2895E-03
   195.503   6.1063E-03
   195.542   5.9218E-03
   195.580   5.8447E-03
   195.618   5.9102E-03
   195.656   6.0795E-03
   195.695   6.2454E-03
   195.733   6.2542E-03
   195.771   6.0855E-03
   195.810   5.9557E-03
   195.848   6.0451E-03
   195.886   6.2708E-03
   195.925   6.4637E-03
   195.963   6.5437E-03
   196.002   6.4997E-03
   196.040   6.3681E-03
   196.078   6.1865E-03
   196.117   5.9608E-03
   196.155   5.7745E-03
   196.194   5.7326E-03
   196.232   5.7909E-03
   196.271   5.8568E-03
   196.309   5.9038E-03
   196.348   5.9384E-03
   196.386   6.0139E-03
   196.425   6.2227E-03
   196.464   6.5535E-03
   196.502   6.8533E-03
   196.541   7.0298E-03
   196.580   7.1335E-03
   196.618   7.2052E-03
   196.657   7.2531E-03
   196.696   7.2938E-03
   196.734   7.3220E-03
   196.773   7.3372E-03
   196.812   7.3592E-03
   196.850   7.4071E-03
   196.889   7.4621E-03
   196.928   7.4712E-03
   196.967   7.4139E-03
   197.006   7.2779E-03
   197.044   7.0467E-03
   197.083   6.8377E-03
   197.122   6.8068E-03
   197.161   6.8556E-03
   197.200   6.8266E-03
   197.239   6.7885E-03
   197.278   6.8250E-03
   197.316   6.8750E-03
   197.355   6.8343E-03
   197.394   6.7110E-03
   197.433   6.6188E-03
   197.472   6.5979E-03
   197.511   6.6189E-03
   197.550   6.6696E-03
   197.589   6.7227E-03
   197.628   6.7271E-03
   197.668   6.6486E-03
   197.707   6.5198E-03
   197.746   6.4856E-03
   197.785   6.6321E-03
   197.824   6.7853E-03
   197.863   6.7627E-03
   197.902   6.6501E-03
   197.941   6.6007E-03
   197.981   6.5980E-03
   198.020   6.5868E-03
   198.059   6.6293E-03
   198.098   6.7966E-03
   198.138   7.0488E-03
   198.177   7.2950E-03
   198.216   7.4012E-03
   198.255   7.2020E-03
   198.295   6.8336E-03
   198.334   6.6558E-03
   198.373   6.6812E-03
   198.413   6.7374E-03
   198.452   6.8310E-03
   198.491   6.9566E-03
   198.531   6.9398E-03
   198.570   6.6594E-03
   198.610   6.3031E-03
   198.649   6.0941E-03
   198.689   6.0277E-03
   198.728   6.0929E-03
   198.768   6.2527E-03
   198.807   6.3140E-03
   198.847   6.1988E-03
   198.886   6.0676E-03
   198.926   6.0587E-03
   198.965   6.1889E-03
   199.005   6.3984E-03
   199.045   6.5610E-03
   199.084   6.5869E-03
   199.124   6.5232E-03
   199.164   6.5430E-03
   199.203   6.8063E-03
   199.243   7.2138E-03
   199.283   7.5116E-03
   199.322   7.6978E-03
   199.362   7.9140E-03
   199.402   8.0948E-03
   199.442   8.0588E-03
   199.481   7.8104E-03
   199.521   7.5728E-03
   199.561   7.4995E-03
   199.601   7.5163E-03
   199.641   7.5319E-03
   199.681   7.5484E-03
   199.720   7.5049E-03
   199.760   7.3340E-03
   199.800   7.1423E-03
   199.840   7.1263E-03
   199.880   7.3239E-03
   199.920   7.5252E-03
   199.960   7.5261E-03
   200.000   7.4198E-03
   200.040   7.4059E-03
   200.080   7.4489E-03
   200.120   7.4289E-03
   200.160   7.4013E-03
   200.200   7.4969E-03
   200.240   7.6963E-03
   200.280   7.8923E-03
   200.321   8.0428E-03
   200.361   8.0816E-03
   200.401   8.0183E-03
   200.441   7.9390E-03
   200.481   7.8124E-03
   200.521   7.6987E-03
   200.562   7.7632E-03
   200.602   8.0263E-03
   200.642   8.3309E-03
   200.682   8.4811E-03
   200.723   8.4263E-03
   200.763   8.2376E-03
   200.803   8.0492E-03
   200.844   7.9580E-03
   200.884   7.9266E-03
   200.924   7.9367E-03
   200.965   8.0003E-03
   201.005   8.0914E-03
   201.045   8.2515E-03
   201.086   8.4086E-03
   201.126   8.2725E-03
   201.167   7.8692E-03
   201.207   7.6239E-03
   201.248   7.7296E-03
   201.288   8.0091E-03
   201.329   8.3312E-03
   201.369   8.6750E-03
   201.410   8.8866E-03
   201.450   8.8310E-03
   201.491   8.6285E-03
   201.532   8.4533E-03
   201.572   8.3475E-03
   201.613   8.2859E-03
   201.654   8.2598E-03
   201.694   8.2979E-03
   201.735   8.4237E-03
   201.776   8.6138E-03
   201.816   8.8441E-03
   201.857   9.1290E-03
   201.898   9.4237E-03
   201.939   9.5526E-03
   201.979   9.4207E-03
   202.020   9.1955E-03
   202.061   9.0659E-03
   202.102   9.0117E-03
   202.143   8.8980E-03
   202.184   8.6488E-03
   202.224   8.3578E-03
   202.265   8.1880E-03
   202.306   8.1656E-03
   202.347   8.2393E-03
   202.388   8.4638E-03
   202.429   8.8637E-03
   202.470   9.1665E-03
   202.511   9.0682E-03
   202.552   8.7258E-03
   202.593   8.2813E-03
   202.634   7.5406E-03
   202.675   6.7462E-03
   202.716   6.4856E-03
   202.758   6.9996E-03
   202.799   7.9809E-03
   202.840   8.8197E-03
   202.881   9.2478E-03
   202.922   9.4326E-03
   202.963   9.5182E-03
   203.004   9.4694E-03
   203.046   9.3195E-03
   203.087   9.3097E-03
   203.128   9.5829E-03
   203.169   9.9772E-03
   203.211   1.0289E-02
   203.252   1.0458E-02
   203.293   1.0443E-02
   203.335   1.0191E-02
   203.376   9.7184E-03
   203.417   9.1371E-03
   203.459   8.6241E-03
   203.500   8.3442E-03
   203.542   8.3894E-03
   203.583   8.7057E-03
   203.625   9.1499E-03
   203.666   9.6821E-03
   203.707   1.0216E-02
   203.749   1.0519E-02
   203.791   1.0575E-02
   203.832   1.0553E-02
   203.874   1.0472E-02
   203.915   1.0278E-02
   203.957   9.9179E-03
   203.998   9.4125E-03
   204.040   9.0163E-03
   204.082   8.9883E-03
   204.123   9.3783E-03
   204.165   9.9973E-03
   204.207   1.0524E-02
   204.248   1.0933E-02
   204.290   1.1372E-02
   204.332   1.1646E-02
   204.374   1.1540E-02
   204.415   1.1165E-02
   204.457   1.0729E-02
   204.499   1.0408E-02
   204.541   1.0335E-02
   204.583   1.0567E-02
   204.625   1.1056E-02
   204.666   1.1582E-02
   204.708   1.1806E-02
   204.750   1.1605E-02
   204.792   1.1186E-02
   204.834   1.0781E-02
   204.876   1.0562E-02
   204.918   1.0653E-02
   204.960   1.0900E-02
   205.002   1.1004E-02
   205.044   1.0983E-02
   205.086   1.1039E-02
   205.128   1.1143E-02
   205.170   1.1216E-02
   205.212   1.1303E-02
   205.255   1.1407E-02
   205.297   1.1510E-02
   205.339   1.1674E-02
   205.381   1.1865E-02
   205.423   1.1918E-02
   205.465   1.1828E-02
   205.508   1.1636E-02
   205.550   1.1245E-02
   205.592   1.0695E-02
   205.634   1.0305E-02
   205.677   1.0383E-02
   205.719   1.0876E-02
   205.761   1.1411E-02
   205.804   1.1612E-02
   205.846   1.1353E-02
   205.888   1.0846E-02
   205.931   1.0575E-02
   205.973   1.0891E-02
   206.016   1.1498E-02
   206.058   1.1905E-02
   206.101   1.2083E-02
   206.143   1.2007E-02
   206.186   1.1468E-02
   206.228   1.0694E-02
   206.271   1.0224E-02
   206.313   1.0205E-02
   206.356   1.0473E-02
   206.398   1.0930E-02
   206.441   1.1399E-02
   206.484   1.1722E-02
   206.526   1.1947E-02
   206.569   1.2028E-02
   206.612   1.1873E-02
   206.654   1.1619E-02
   206.697   1.1515E-02
   206.740   1.1732E-02
   206.782   1.2164E-02
   206.825   1.2472E-02
   206.868   1.2444E-02
   206.911   1.2223E-02
   206.954   1.2067E-02
   206.996   1.2014E-02
   207.039   1.2003E-02
   207.082   1.2100E-02
   207.125   1.2355E-02
   207.168   1.2662E-02
   207.211   1.2811E-02
   207.254   1.2742E-02
   207.297   1.2704E-02
   207.340   1.2841E-02
   207.383   1.3053E-02
   207.426   1.3308E-02
   207.469   1.3540E-02
   207.512   1.3657E-02
   207.555   1.3754E-02
   207.598   1.3937E-02
   207.641   1.4186E-02
   207.684   1.4448E-02
   207.727   1.4679E-02
   207.771   1.4822E-02
   207.814   1.4759E-02
   207.857   1.4390E-02
   207.900   1.3927E-02
   207.943   1.3749E-02
   207.987   1.3986E-02
   208.030   1.4438E-02
   208.073   1.4644E-02
   208.117   1.4427E-02
   208.160   1.4060E-02
   208.203   1.3760E-02
   208.247   1.3547E-02
   208.290   1.3399E-02
   208.333   1.3456E-02
   208.377   1.3770E-02
   208.420   1.4009E-02
   208.464   1.3914E-02
   208.507   1.3647E-02
   208.551   1.3683E-02
   208.594   1.4485E-02
   208.638   1.5842E-02
   208.681   1.6925E-02
   208.725   1.7256E-02
   208.768   1.7103E-02
   208.812   1.7156E-02
   208.855   1.7912E-02
   208.899   1.8980E-02
   208.943   1.9294E-02
   208.986   1.8445E-02
   209.030   1.7211E-02
   209.074   1.6479E-02
   209.118   1.6549E-02
   209.161   1.7335E-02
   209.205   1.8342E-02
   209.249   1.8915E-02
   209.293   1.9555E-02
   209.336   2.1559E-02
   209.380   2.3994E-02
   209.424   2.4125E-02
   209.468   2.1742E-02
   209.512   1.9528E-02
   209.556   1.9290E-02
   209.600   2.0449E-02
   209.644   2.1800E-02
   209.688   2.2944E-02
   209.732   2.4013E-02
   209.776   2.5210E-02
   209.820   2.6537E-02
   209.864   2.7334E-02
   209.908   2.6779E-02
   209.952   2.4878E-02
   209.996   2.2416E-02
   210.040   2.0684E-02
   210.084   2.0867E-02
   210.128   2.3109E-02
   210.172   2.6926E-02
   210.217   3.1356E-02
   210.261   3.4336E-02
   210.305   3.4021E-02
   210.349   3.0263E-02
   210.393   2.4658E-02
   210.438   2.0663E-02
   210.482   2.1264E-02
   210.526   2.5920E-02
   210.571   3.1966E-02
   210.615   3.6655E-02
   210.659   3.7870E-02
   210.704   3.6374E-02
   210.748   3.4959E-02
   210.793   3.4453E-02
   210.837   3.3431E-02
   210.881   3.0318E-02
   210.926   2.5562E-02
   210.970   2.1726E-02
   211.015   2.0185E-02
   211.060   2.0249E-02
   211.104   2.1863E-02
   211.149   2.6199E-02
   211.193   3.2741E-02
   211.238   3.8347E-02
   211.282   4.0231E-02
   211.327   3.8050E-02
   211.372   3.4168E-02
   211.416   3.1168E-02
   211.461   2.8963E-02
   211.506   2.6652E-02
   211.551   2.5075E-02
   211.595   2.6275E-02
   211.640   3.1379E-02
   211.685   3.8396E-02
   211.730   4.3911E-02
   211.775   4.6132E-02
   211.820   4.4395E-02
   211.864   4.0172E-02
   211.909   3.7370E-02
   211.954   3.8321E-02
   211.999   4.2616E-02
   212.044   4.8019E-02
   212.089   5.0509E-02
   212.134   4.7832E-02
   212.179   4.2531E-02
   212.224   3.7902E-02
   212.269   3.4203E-02
   212.314   3.0352E-02
   212.359   2.5682E-02
   212.404   2.0807E-02
   212.450   1.7158E-02
   212.495   1.5040E-02
   212.540   1.5086E-02
   212.585   1.8515E-02
   212.630   2.4192E-02
   212.675   2.9814E-02
   212.721   3.4167E-02
   212.766   3.6498E-02
   212.811   3.7060E-02
   212.857   3.7252E-02
   212.902   3.7598E-02
   212.947   3.7104E-02
   212.993   3.4539E-02
   213.038   3.0403E-02
   213.083   2.7066E-02
   213.129   2.6517E-02
   213.174   2.8265E-02
   213.220   2.9974E-02
   213.265   3.0305E-02
   213.311   2.9887E-02
   213.356   3.0063E-02
   213.402   3.0976E-02
   213.447   3.0877E-02
   213.493   2.8831E-02
   213.538   2.6602E-02
   213.584   2.6482E-02
   213.630   2.8612E-02
   213.675   3.2110E-02
   213.721   3.6827E-02
   213.767   4.0956E-02
   213.812   4.1345E-02
   213.858   3.7634E-02
   213.904   3.1928E-02
   213.950   2.6655E-02
   213.995   2.4461E-02
   214.041   2.6795E-02
   214.087   3.2665E-02
   214.133   4.0489E-02
   214.179   4.7834E-02
   214.225   5.1065E-02
   214.270   4.9892E-02
   214.316   4.8004E-02
   214.362   4.7948E-02
   214.408   4.8976E-02
   214.454   4.8987E-02
   214.500   4.7162E-02
   214.546   4.3964E-02
   214.592   3.9963E-02
   214.638   3.6347E-02
   214.684   3.4185E-02
   214.731   3.3339E-02
   214.777   3.3574E-02
   214.823   3.5199E-02
   214.869   3.7973E-02
   214.915   4.0943E-02
   214.961   4.3704E-02
   215.008   4.4931E-02
   215.054   4.2333E-02
   215.100   3.6963E-02
   215.146   3.2676E-02
   215.193   3.1546E-02
   215.239   3.2838E-02
   215.285   3.5556E-02
   215.332   3.9659E-02
   215.378   4.4165E-02
   215.424   4.7010E-02
   215.471   4.6939E-02
   215.517   4.4426E-02
   215.564   4.1239E-02
   215.610   3.8580E-02
   215.657   3.6110E-02
   215.703   3.2981E-02
   215.750   2.9017E-02
   215.796   2.5184E-02
   215.843   2.2589E-02
   215.889   2.1639E-02
   215.936   2.2174E-02
   215.983   2.3880E-02
   216.029   2.7701E-02
   216.076   3.4227E-02
   216.123   4.0430E-02
   216.169   4.2934E-02
   216.216   4.2317E-02
   216.263   4.0778E-02
   216.310   3.9872E-02
   216.357   3.9777E-02
   216.403   3.9130E-02
   216.450   3.7895E-02
   216.497   3.7137E-02
   216.544   3.5906E-02
   216.591   3.2467E-02
   216.638   2.7282E-02
   216.685   2.2297E-02
   216.732   1.9484E-02
   216.779   2.0659E-02
   216.826   2.5390E-02
   216.873   2.9375E-02
   216.920   2.9319E-02
   216.967   2.7615E-02
   217.014   2.8059E-02
   217.061   3.0849E-02
   217.108   3.3877E-02
   217.155   3.5681E-02
   217.202   3.6733E-02
   217.250   3.7958E-02
   217.297   3.8641E-02
   217.344   3.7671E-02
   217.391   3.4959E-02
   217.439   3.1175E-02
   217.486   2.7737E-02
   217.533   2.5956E-02
   217.581   2.6581E-02
   217.628   2.9463E-02
   217.675   3.2125E-02
   217.723   3.1392E-02
   217.770   2.7897E-02
   217.817   2.5516E-02
   217.865   2.7134E-02
   217.912   3.3636E-02
   217.960   4.2817E-02
   218.007   5.0026E-02
   218.055   5.3338E-02
   218.103   5.4514E-02
   218.150   5.5621E-02
   218.198   5.7276E-02
   218.245   5.8463E-02
   218.293   5.7656E-02
   218.341   5.4602E-02
   218.388   5.0415E-02
   218.436   4.6546E-02
   218.484   4.4829E-02
   218.531   4.6790E-02
   218.579   4.9830E-02
   218.627   4.7480E-02
   218.675   3.8687E-02
   218.723   3.1039E-02
   218.771   3.0424E-02
   218.818   3.4955E-02
   218.866   3.9567E-02
   218.914   4.0977E-02
   218.962   3.9941E-02
   219.010   4.0077E-02
   219.058   4.2754E-02
   219.106   4.4875E-02
   219.154   4.3584E-02
   219.202   4.0523E-02
   219.250   4.1567E-02
   219.298   5.0030E-02
   219.346   5.9255E-02
   219.394   6.1785E-02
   219.443   5.8781E-02
   219.491   5.3309E-02
   219.539   4.6732E-02
   219.587   4.0354E-02
   219.635   3.5902E-02
   219.684   3.5581E-02
   219.732   3.9419E-02
   219.780   4.5493E-02
   219.829   5.2172E-02
   219.877   5.7272E-02
   219.925   5.9093E-02
   219.974   5.7595E-02
   220.022   5.2034E-02
   220.070   4.2875E-02
   220.119   3.5388E-02
   220.167   3.4182E-02
   220.216   3.9422E-02
   220.264   4.9396E-02
   220.313   5.9482E-02
   220.361   6.5465E-02
   220.410   6.6820E-02
   220.459   6.3940E-02
   220.507   5.9965E-02
   220.556   5.8427E-02
   220.604   5.7655E-02
   220.653   5.4182E-02
   220.702   4.8800E-02
   220.751   4.4416E-02
   220.799   4.0862E-02
   220.848   3.7256E-02
   220.897   3.5693E-02
   220.946   3.6711E-02
   220.994   3.5939E-02
   221.043   3.0863E-02
   221.092   2.4263E-02
   221.141   2.0329E-02
   221.190   2.0569E-02
   221.239   2.6037E-02
   221.288   3.6862E-02
   221.337   4.5756E-02
   221.386   4.7179E-02
   221.435   4.5527E-02
   221.484   4.5444E-02
   221.533   4.5324E-02
   221.582   4.1615E-02
   221.631   3.4604E-02
   221.680   2.7839E-02
   221.729   2.4203E-02
   221.779   2.4503E-02
   221.828   2.8100E-02
   221.877   3.4614E-02
   221.926   4.2956E-02
   221.976   4.9438E-02
   222.025   5.1944E-02
   222.074   5.2939E-02
   222.124   5.4822E-02
   222.173   5.5914E-02
   222.222   5.3830E-02
   222.272   5.0280E-02
   222.321   4.8198E-02
   222.370   4.8319E-02
   222.420   4.9893E-02
   222.469   5.0707E-02
   222.519   4.9885E-02
   222.568   4.8998E-02
   222.618   4.8121E-02
   222.668   4.5968E-02
   222.717   4.3385E-02
   222.767   4.2613E-02
   222.816   4.4716E-02
   222.866   4.8886E-02
   222.916   5.2221E-02
   222.965   5.2231E-02
   223.015   4.9466E-02
   223.065   4.5647E-02
   223.115   4.3141E-02
   223.164   4.5813E-02
   223.214   5.5231E-02
   223.264   6.7190E-02
   223.314   7.6190E-02
   223.364   7.9619E-02
   223.414   7.7801E-02
   223.464   7.4941E-02
   223.514   7.4746E-02
   223.564   7.6226E-02
   223.614   7.6492E-02
   223.664   7.4008E-02
   223.714   6.9777E-02
   223.764   6.4888E-02
   223.814   5.8781E-02
   223.864   5.4083E-02
   223.914   5.5570E-02
   223.964   6.1634E-02
   224.014   6.5844E-02
   224.065   6.4707E-02
   224.115   5.9647E-02
   224.165   5.4537E-02
   224.215   5.1836E-02
   224.266   5.0799E-02
   224.316   4.9660E-02
   224.366   4.7710E-02
   224.417   4.6236E-02
   224.467   4.8161E-02
   224.517   5.3705E-02
   224.568   5.9195E-02
   224.618   6.2551E-02
   224.669   6.5123E-02
   224.719   6.8349E-02
   224.770   7.1066E-02
   224.820   6.9744E-02
   224.871   6.3326E-02
   224.921   5.6254E-02
   224.972   5.2765E-02
   225.023   5.2088E-02
   225.073   5.1246E-02
   225.124   4.9877E-02
   225.175   5.0722E-02
   225.225   5.4341E-02
   225.276   5.6465E-02
   225.327   5.3694E-02
   225.378   4.8600E-02
   225.428   4.6693E-02
   225.479   4.8961E-02
   225.530   5.0240E-02
   225.581   4.7685E-02
   225.632   4.5369E-02
   225.683   4.6747E-02
   225.734   4.9450E-02
   225.785   5.0684E-02
   225.836   5.1449E-02
   225.887   5.2597E-02
   225.938   5.1684E-02
   225.989   4.6752E-02
   226.040   4.0753E-02
   226.091   3.8775E-02
   226.142   4.1586E-02
   226.193   4.5786E-02
   226.244   4.8214E-02
   226.296   4.7244E-02
   226.347   4.3365E-02
   226.398   3.9169E-02
   226.449   3.6048E-02
   226.501   3.3484E-02
   226.552   3.1975E-02
   226.603   3.2098E-02
   226.655   3.2757E-02
   226.706   3.2779E-02
   226.757   3.2099E-02
   226.809   3.1311E-02
   226.860   3.0601E-02
   226.912   2.9869E-02
   226.963   2.9326E-02
   227.015   2.9127E-02
   227.066   2.9409E-02
   227.118   3.0281E-02
   227.169   3.1410E-02
   227.221   3.2645E-02
   227.273   3.4000E-02
   227.324   3.4429E-02
   227.376   3.3690E-02
   227.428   3.3947E-02
   227.480   3.5661E-02
   227.531   3.6357E-02
   227.583   3.5907E-02
   227.635   3.6826E-02
   227.687   3.9466E-02
   227.739   4.2105E-02
   227.790   4.3825E-02
   227.842   4.4944E-02
   227.894   4.5478E-02
   227.946   4.4947E-02
   227.998   4.4366E-02
   228.050   4.6352E-02
   228.102   5.1481E-02
   228.154   5.7048E-02
   228.206   6.0712E-02
   228.258   6.1019E-02
   228.311   5.7077E-02
   228.363   5.2260E-02
   228.415   5.2041E-02
   228.467   5.6800E-02
   228.519   6.1566E-02
   228.571   6.0529E-02
   228.624   5.2248E-02
   228.676   4.2353E-02
   228.728   3.7840E-02
   228.781   4.0595E-02
   228.833   4.6428E-02
   228.885   4.8992E-02
   228.938   4.7013E-02
   228.990   4.3805E-02
   229.043   4.1565E-02
   229.095   4.1244E-02
   229.148   4.2730E-02
   229.200   4.4604E-02
   229.253   4.6421E-02
   229.305   4.8371E-02
   229.358   4.9778E-02
   229.410   4.9986E-02
   229.463   5.0275E-02
   229.516   5.2992E-02
   229.568   5.7150E-02
   229.621   5.7710E-02
   229.674   5.1099E-02
   229.727   4.0429E-02
   229.779   3.2605E-02
   229.832   3.0488E-02
   229.885   3.2243E-02
   229.938   3.5222E-02
   229.991   3.7137E-02
   230.044   3.7711E-02
   230.097   3.9293E-02
   230.150   4.2973E-02
   230.203   4.6882E-02
   230.256   4.7950E-02
   230.309   4.4802E-02
   230.362   4.2060E-02
   230.415   4.4879E-02
   230.468   5.1865E-02
   230.521   6.0557E-02
   230.574   6.9003E-02
   230.627   7.3861E-02
   230.681   7.3421E-02
   230.734   6.8971E-02
   230.787   6.3599E-02
   230.840   5.8749E-02
   230.894   5.3574E-02
   230.947   4.8131E-02
   231.000   4.3398E-02
   231.054   3.9091E-02
   231.107   3.5060E-02
   231.160   3.2476E-02
   231.214   3.1734E-02
   231.267   3.1739E-02
   231.321   3.2889E-02
   231.374   3.8056E-02
   231.428   4.7362E-02
   231.481   5.6247E-02
   231.535   6.0268E-02
   231.589   5.9034E-02
   231.642   5.5571E-02
   231.696   5.2778E-02
   231.750   5.2287E-02
   231.803   5.3956E-02
   231.857   5.4338E-02
   231.911   4.9973E-02
   231.965   4.2084E-02
   232.019   3.5794E-02
   232.072   3.4664E-02
   232.126   3.8598E-02
   232.180   4.7034E-02
   232.234   5.8741E-02
   232.288   7.0373E-02
   232.342   7.6418E-02
   232.396   7.3432E-02
   232.450   6.3371E-02
   232.504   5.0700E-02
   232.558   4.0762E-02
   232.612   3.6380E-02
   232.666   3.6248E-02
   232.721   3.8767E-02
   232.775   4.3997E-02
   232.829   5.0843E-02
   232.883   5.5633E-02
   232.937   5.6201E-02
   232.992   5.3088E-02
   233.046   4.7374E-02
   233.100   4.1283E-02
   233.155   3.6858E-02
   233.209   3.4011E-02
   233.263   3.3344E-02
   233.318   3.5900E-02
   233.372   4.0273E-02
   233.427   4.5308E-02
   233.481   5.1200E-02
   233.536   5.6376E-02
   233.590   5.7974E-02
   233.645   5.3780E-02
   233.699   4.4246E-02
   233.754   3.4079E-02
   233.809   2.8753E-02
   233.863   2.9405E-02
   233.918   3.3020E-02
   233.973   3.6868E-02
   234.028   4.0538E-02
   234.082   4.4435E-02
   234.137   4.7425E-02
   234.192   4.7230E-02
   234.247   4.2475E-02
   234.302   3.4296E-02
   234.357   2.7068E-02
   234.412   2.4264E-02
   234.467   2.5184E-02
   234.522   2.7275E-02
   234.577   2.9340E-02
   234.632   3.1567E-02
   234.687   3.2670E-02
   234.742   3.0973E-02
   234.797   2.8959E-02
   234.852   3.1535E-02
   234.907   3.9155E-02
   234.962   4.6749E-02
   235.018   5.0508E-02
   235.073   5.1940E-02
   235.128   5.4303E-02
   235.183   5.8107E-02
   235.239   6.1030E-02
   235.294   6.0884E-02
   235.349   5.6694E-02
   235.405   5.0058E-02
   235.460   4.6369E-02
   235.516   4.9388E-02
   235.571   5.6412E-02
   235.627   6.1850E-02
   235.682   6.3505E-02
   235.738   6.1802E-02
   235.793   5.5464E-02
   235.849   4.5199E-02
   235.905   3.5955E-02
   235.960   3.1082E-02
   236.016   3.1231E-02
   236.072   3.5511E-02
   236.128   4.1073E-02
   236.183   4.6674E-02
   236.239   5.2566E-02
   236.295   5.6041E-02
   236.351   5.3413E-02
   236.407   4.6260E-02
   236.463   4.0667E-02
   236.518   3.9559E-02
   236.574   4.0359E-02
   236.630   4.0217E-02
   236.686   3.9760E-02
   236.742   4.0547E-02
   236.798   4.2870E-02
   236.855   4.6874E-02
   236.911   5.1330E-02
   236.967   5.4622E-02
   237.023   5.8087E-02
   237.079   6.2680E-02
   237.135   6.5395E-02
   237.192   6.1553E-02
   237.248   5.0893E-02
   237.304   4.0426E-02
   237.361   3.6304E-02
   237.417   3.7646E-02
   237.473   4.1118E-02
   237.530   4.6046E-02
   237.586   5.3532E-02
   237.643   6.1094E-02
   237.699   6.3301E-02
   237.756   5.8752E-02
   237.812   5.0398E-02
   237.869   4.2826E-02
   237.925   3.9195E-02
   237.982   3.7319E-02
   238.039   3.3447E-02
   238.095   2.7857E-02
   238.152   2.3484E-02
   238.209   2.1882E-02
   238.265   2.2799E-02
   238.322   2.5936E-02
   238.379   3.1030E-02
   238.436   3.7844E-02
   238.493   4.5266E-02
   238.550   5.1001E-02
   238.607   5.3632E-02
   238.663   5.2605E-02
   238.720   4.7554E-02
   238.777   3.9682E-02
   238.834   3.3697E-02
   238.892   3.4787E-02
   238.949   4.3004E-02
   239.006   5.3420E-02
   239.063   5.9360E-02
   239.120   5.9406E-02
   239.177   5.8110E-02
   239.234   5.7401E-02
   239.292   5.5725E-02
   239.349   5.0310E-02
   239.406   3.9646E-02
   239.464   2.8670E-02
   239.521   2.4835E-02
   239.578   2.8884E-02
   239.636   3.5722E-02
   239.693   4.0899E-02
   239.751   4.1750E-02
   239.808   3.8095E-02
   239.866   3.5055E-02
   239.923   3.8135E-02
   239.981   4.5002E-02
   240.038   4.9180E-02
   240.096   4.9166E-02
   240.154   4.7848E-02
   240.211   4.6880E-02
   240.269   4.4196E-02
   240.327   3.7570E-02
   240.385   3.0427E-02
   240.442   2.7788E-02
   240.500   2.9054E-02
   240.558   3.0650E-02
   240.616   3.1584E-02
   240.674   3.4290E-02
   240.732   4.0157E-02
   240.790   4.5848E-02
   240.848   4.7066E-02
   240.906   4.2460E-02
   240.964   3.4734E-02
   241.022   2.9634E-02
   241.080   3.0483E-02
   241.138   3.4861E-02
   241.196   3.7455E-02
   241.255   3.7297E-02
   241.313   3.8373E-02
   241.371   4.2578E-02
   241.429   4.8079E-02
   241.488   5.2549E-02
   241.546   5.5741E-02
   241.604   5.8103E-02
   241.663   5.9421E-02
   241.721   6.1098E-02
   241.779   6.3979E-02
   241.838   6.6339E-02
   241.896   6.8003E-02
   241.955   7.0518E-02
   242.014   7.3938E-02
   242.072   7.7755E-02
   242.131   7.9922E-02
   242.189   7.6577E-02
   242.248   6.9248E-02
   242.307   6.3574E-02
   242.365   6.1535E-02
   242.424   6.2842E-02
   242.483   6.6737E-02
   242.542   7.2228E-02
   242.601   7.8957E-02
   242.660   8.3422E-02
   242.718   8.0602E-02
   242.777   7.2675E-02
   242.836   6.7497E-02
   242.895   6.8853E-02
   242.954   7.3587E-02
   243.013   7.6439E-02
   243.072   7.4841E-02
   243.132   6.9911E-02
   243.191   6.4809E-02
   243.250   6.3038E-02
   243.309   6.5079E-02
   243.368   6.5874E-02
   243.427   6.1778E-02
   243.487   5.6838E-02
   243.546   5.5998E-02
   243.605   5.9110E-02
   243.665   6.4604E-02
   243.724   6.9117E-02
   243.784   6.8032E-02
   243.843   6.2682E-02
   243.902   5.8924E-02
   243.962   6.0849E-02
   244.021   6.7371E-02
   244.081   7.4113E-02
   244.141   7.8103E-02
   244.200   7.8184E-02
   244.260   7.4743E-02
   244.320   6.9385E-02
   244.379   6.5100E-02
   244.439   6.3869E-02
   244.499   6.3999E-02
   244.559   6.3139E-02
   244.618   6.0614E-02
   244.678   5.6985E-02
   244.738   5.3214E-02
   244.798   5.1380E-02
   244.858   5.2507E-02
   244.918   5.3536E-02
   244.978   5.2420E-02
   245.038   5.0187E-02
   245.098   4.8009E-02
   245.158   4.6733E-02
   245.218   4.6263E-02
   245.278   4.6070E-02
   245.339   4.6717E-02
   245.399   4.8616E-02
   245.459   5.0496E-02
   245.519   5.0933E-02
   245.580   4.9865E-02
   245.640   4.9449E-02
   245.700   5.1927E-02
   245.761   5.4707E-02
   245.821   5.4085E-02
   245.881   5.1919E-02
   245.942   5.0490E-02
   246.002   4.8858E-02
   246.063   4.6536E-02
   246.124   4.4119E-02
   246.184   4.1887E-02
   246.245   4.0755E-02
   246.305   4.2515E-02
   246.366   4.6592E-02
   246.427   5.0269E-02
   246.488   5.2044E-02
   246.548   5.2186E-02
   246.609   5.2018E-02
   246.670   5.2952E-02
   246.731   5.5129E-02
   246.792   5.7177E-02
   246.853   5.7898E-02
   246.914   5.7371E-02
   246.975   5.6727E-02
   247.036   5.7617E-02
   247.097   5.9829E-02
   247.158   5.8883E-02
   247.219   5.2543E-02
   247.280   4.7633E-02
   247.341   5.0956E-02
   247.402   5.9027E-02
   247.463   6.4101E-02
   247.525   6.4603E-02
   247.586   6.3215E-02
   247.647   6.1584E-02
   247.709   5.9603E-02
   247.770   5.6354E-02
   247.831   5.1883E-02
   247.893   4.7495E-02
   247.954   4.6511E-02
   248.016   5.0450E-02
   248.077   5.5174E-02
   248.139   5.5385E-02
   248.201   4.9121E-02
   248.262   4.0140E-02
   248.324   3.3801E-02
   248.385   3.3130E-02
   248.447   3.8341E-02
   248.509   4.5362E-02
   248.571   5.0344E-02
   248.633   5.1176E-02
   248.694   4.7499E-02
   248.756   4.1551E-02
   248.818   3.6840E-02
   248.880   3.5623E-02
   248.942   3.5358E-02
   249.004   3.3310E-02
   249.066   3.1243E-02
   249.128   3.2219E-02
   249.190   3.8325E-02
   249.252   4.7420E-02
   249.314   5.4896E-02
   249.377   6.1665E-02
   249.439   6.8929E-02
   249.501   7.2721E-02
   249.563   7.1380E-02
   249.626   6.9268E-02
   249.688   6.9749E-02
   249.750   7.0849E-02
   249.813   7.1406E-02
   249.875   7.3506E-02
   249.938   7.6217E-02
   250.000   7.4065E-02
   250.063   6.5155E-02
   250.125   5.5880E-02
   250.188   5.4016E-02
   250.250   5.9303E-02
   250.313   6.5620E-02
   250.376   6.9905E-02
   250.438   7.1334E-02
   250.501   6.7929E-02
   250.564   5.9696E-02
   250.627   4.9944E-02
   250.689   4.4322E-02
   250.752   4.7326E-02
   250.815   5.6372E-02
   250.878   6.5159E-02
   250.941   6.9534E-02
   251.004   6.7383E-02
   251.067   6.0931E-02
   251.130   5.6138E-02
   251.193   5.5015E-02
   251.256   5.4281E-02
   251.319   5.0737E-02
   251.383   4.5214E-02
   251.446   4.1058E-02
   251.509   3.9189E-02
   251.572   3.7792E-02
   251.636   3.6632E-02
   251.699   3.7329E-02
   251.762   3.9104E-02
   251.826   4.0000E-02
   251.889   4.0082E-02
   251.953   4.1282E-02
   252.016   4.5331E-02
   252.080   5.0024E-02
   252.143   5.1098E-02
   252.207   4.7300E-02
   252.270   4.1048E-02
   252.334   3.6458E-02
   252.398   3.5595E-02
   252.461   3.7879E-02
   252.525   4.2441E-02
   252.589   4.6933E-02
   252.653   4.7745E-02
   252.717   4.4371E-02
   252.781   3.9379E-02
   252.845   3.5171E-02
   252.908   3.3447E-02
   252.972   3.5588E-02
   253.036   4.2926E-02
   253.100   5.3134E-02
   253.165   5.9602E-02
   253.229   6.0029E-02
   253.293   5.8002E-02
   253.357   5.6769E-02
   253.421   5.6751E-02
   253.485   5.6450E-02
   253.550   5.4667E-02
   253.614   5.2344E-02
   253.678   5.1976E-02
   253.743   5.4039E-02
   253.807   5.5860E-02
   253.872   5.5834E-02
   253.936   5.6522E-02
   254.001   5.9070E-02
   254.065   5.9400E-02
   254.130   5.6636E-02
   254.194   5.5697E-02
   254.259   5.9035E-02
   254.323   6.4233E-02
   254.388   6.7511E-02
   254.453   6.7362E-02
   254.518   6.4667E-02
   254.582   6.0671E-02
   254.647   5.7432E-02
   254.712   5.7020E-02
   254.777   5.8508E-02
   254.842   5.7909E-02
   254.907   5.3876E-02
   254.972   5.1863E-02
   255.037   5.7873E-02
   255.102   7.1266E-02
   255.167   8.4917E-02
   255.232   9.0149E-02
   255.297   8.7386E-02
   255.363   8.7014E-02
   255.428   9.1272E-02
   255.493   9.1780E-02
   255.558   8.7584E-02
   255.624   8.4564E-02
   255.689   8.2893E-02
   255.754   8.1532E-02
   255.820   8.4740E-02
   255.885   9.3677E-02
   255.951   1.0081E-01
   256.016   1.0069E-01
   256.082   9.6739E-02
   256.148   9.0485E-02
   256.213   8.0626E-02
   256.279   7.1327E-02
   256.345   6.8800E-02
   256.410   7.4719E-02
   256.476   8.6303E-02
   256.542   1.0143E-01
   256.608   1.1630E-01
   256.674   1.2308E-01
   256.739   1.2198E-01
   256.805   1.2048E-01
   256.871   1.2222E-01
   256.937   1.2884E-01
   257.003   1.3673E-01
   257.069   1.3800E-01
   257.136   1.3507E-01
   257.202   1.3519E-01
   257.268   1.3988E-01
   257.334   1.4764E-01
   257.400   1.4913E-01
   257.467   1.3488E-01
   257.533   1.1023E-01
   257.599   8.7607E-02
   257.666   7.6695E-02
   257.732   8.1629E-02
   257.798   9.7728E-02
   257.865   1.1614E-01
   257.931   1.3324E-01
   257.998   1.5006E-01
   258.065   1.6677E-01
   258.131   1.8181E-01
   258.198   1.8075E-01
   258.264   1.5569E-01
   258.331   1.3179E-01
   258.398   1.2549E-01
   258.465   1.2008E-01
   258.532   1.0093E-01
   258.598   7.7286E-02
   258.665   6.8133E-02
   258.732   7.8908E-02
   258.799   9.8653E-02
   258.866   1.1842E-01
   258.933   1.4225E-01
   259.000   1.6722E-01
   259.067   1.7172E-01
   259.134   1.4887E-01
   259.202   1.2485E-01
   259.269   1.1495E-01
   259.336   1.0441E-01
   259.403   9.0431E-02
   259.471   8.9056E-02
   259.538   1.0088E-01
   259.605   1.1082E-01
   259.673   1.1636E-01
   259.740   1.1897E-01
   259.808   1.0667E-01
   259.875   8.1015E-02
   259.943   5.9555E-02
   260.010   5.2106E-02
   260.078   6.3497E-02
   260.146   9.1806E-02
   260.213   1.2133E-01
   260.281   1.3814E-01
   260.349   1.4114E-01
   260.417   1.3579E-01
   260.485   1.2570E-01
   260.552   1.0971E-01
   260.620   9.0928E-02
   260.688   7.5930E-02
   260.756   6.9123E-02
   260.824   7.5208E-02
   260.892   9.1872E-02
   260.960   1.0791E-01
   261.028   1.1402E-01
   261.097   1.0594E-01
   261.165   8.7431E-02
   261.233   7.1280E-02
   261.301   6.6324E-02
   261.370   6.9032E-02
   261.438   7.6340E-02
   261.506   9.2317E-02
   261.575   1.1305E-01
   261.643   1.2639E-01
   261.712   1.2273E-01
   261.780   1.0563E-01
   261.849   9.3397E-02
   261.917   9.8912E-02
   261.986   1.1731E-01
   262.055   1.3066E-01
   262.123   1.2819E-01
   262.192   1.2282E-01
   262.261   1.2811E-01
   262.329   1.3789E-01
   262.398   1.4428E-01
   262.467   1.4609E-01
   262.536   1.3741E-01
   262.605   1.1781E-01
   262.674   1.0307E-01
   262.743   1.0215E-01
   262.812   1.0230E-01
   262.881   9.6604E-02
   262.950   9.4813E-02
   263.019   9.6265E-02
   263.089   8.7912E-02
   263.158   7.3990E-02
   263.227   7.3589E-02
   263.296   8.9615E-02
   263.366   1.1410E-01
   263.435   1.4312E-01
   263.505   1.6854E-01
   263.574   1.8207E-01
   263.644   1.9303E-01
   263.713   2.1347E-01
   263.783   2.4437E-01
   263.852   2.8045E-01
   263.922   2.9894E-01
   263.992   2.8692E-01
   264.061   2.6465E-01
   264.131   2.5228E-01
   264.201   2.6155E-01
   264.271   2.9706E-01
   264.340   3.3828E-01
   264.410   3.4947E-01
   264.480   3.2249E-01
   264.550   2.8617E-01
   264.620   2.6174E-01
   264.690   2.4765E-01
   264.760   2.3339E-01
   264.831   2.1229E-01
   264.901   1.9717E-01
   264.971   2.0123E-01
   265.041   2.1372E-01
   265.111   2.2123E-01
   265.182   2.2818E-01
   265.252   2.4088E-01
   265.322   2.5441E-01
   265.393   2.6965E-01
   265.463   2.9543E-01
   265.534   3.2042E-01
   265.604   3.2205E-01
   265.675   3.0907E-01
   265.745   3.0174E-01
   265.816   2.9292E-01
   265.887   2.8328E-01
   265.957   2.8809E-01
   266.028   2.9740E-01
   266.099   2.9178E-01
   266.170   2.7204E-01
   266.241   2.5590E-01
   266.312   2.4892E-01
   266.383   2.3872E-01
   266.454   2.3661E-01
   266.525   2.5711E-01
   266.596   2.7135E-01
   266.667   2.6024E-01
   266.738   2.5612E-01
   266.809   2.7132E-01
   266.880   2.7289E-01
   266.951   2.5318E-01
   267.023   2.4334E-01
   267.094   2.6432E-01
   267.165   2.8260E-01
   267.237   2.5724E-01
   267.308   2.2338E-01
   267.380   2.3897E-01
   267.451   2.9026E-01
   267.523   3.2501E-01
   267.594   3.2833E-01
   267.666   3.1006E-01
   267.738   2.8064E-01
   267.809   2.5270E-01
   267.881   2.3138E-01
   267.953   2.2164E-01
   268.025   2.2904E-01
   268.097   2.4941E-01
   268.168   2.7017E-01
   268.240   2.7919E-01
   268.312   2.7478E-01
   268.384   2.6322E-01
   268.456   2.5346E-01
   268.528   2.5505E-01
   268.601   2.6952E-01
   268.673   2.8485E-01
   268.745   2.8692E-01
   268.817   2.7528E-01
   268.889   2.5679E-01
   268.962   2.3530E-01
   269.034   2.2215E-01
   269.107   2.2993E-01
   269.179   2.5052E-01
   269.251   2.6477E-01
   269.324   2.7226E-01
   269.397   2.7937E-01
   269.469   2.7143E-01
   269.542   2.3928E-01
   269.614   2.1194E-01
   269.687   2.1932E-01
   269.760   2.3949E-01
   269.833   2.4347E-01
   269.906   2.5410E-01
   269.978   2.9722E-01
   270.051   3.3579E-01
   270.124   3.2206E-01
   270.197   2.8714E-01
   270.270   2.8260E-01
   270.343   3.0030E-01
   270.416   3.2117E-01
   270.490   3.3734E-01
   270.563   3.2567E-01
   270.636   2.8951E-01
   270.709   2.6603E-01
   270.783   2.6477E-01
   270.856   2.6561E-01
   270.929   2.6584E-01
   271.003   2.7167E-01
   271.076   2.7223E-01
   271.150   2.6961E-01
   271.223   2.8640E-01
   271.297   3.0942E-01
   271.370   2.9310E-01
   271.444   2.4364E-01
   271.518   2.1311E-01
   271.592   2.2289E-01
   271.665   2.4926E-01
   271.739   2.5368E-01
   271.813   2.1699E-01
   271.887   1.6189E-01
   271.961   1.2814E-01
   272.035   1.2387E-01
   272.109   1.3665E-01
   272.183   1.6486E-01
   272.257   1.9433E-01
   272.331   2.0203E-01
   272.405   1.9521E-01
   272.480   1.9620E-01
   272.554   2.0746E-01
   272.628   2.1649E-01
   272.702   2.1322E-01
   272.777   2.0640E-01
   272.851   2.3014E-01
   272.926   2.8883E-01
   273.000   3.2147E-01
   273.075   3.0217E-01
   273.149   2.7927E-01
   273.224   2.7128E-01
   273.299   2.5318E-01
   273.373   2.2285E-01
   273.448   2.0527E-01
   273.523   2.0735E-01
   273.598   2.0340E-01
   273.673   1.7728E-01
   273.748   1.5417E-01
   273.823   1.5584E-01
   273.898   1.5925E-01
   273.973   1.4852E-01
   274.048   1.4563E-01
   274.123   1.5344E-01
   274.198   1.4917E-01
   274.273   1.2893E-01
   274.348   1.1159E-01
   274.424   1.1632E-01
   274.499   1.4184E-01
   274.574   1.5829E-01
   274.650   1.4353E-01
   274.725   1.2439E-01
   274.801   1.2905E-01
   274.876   1.3479E-01
   274.952   1.1893E-01
   275.028   1.1051E-01
   275.103   1.3941E-01
   275.179   1.9155E-01
   275.255   2.3312E-01
   275.330   2.3950E-01
   275.406   2.1537E-01
   275.482   1.8162E-01
   275.558   1.4747E-01
   275.634   1.2994E-01
   275.710   1.5218E-01
   275.786   2.1193E-01
   275.862   2.7954E-01
   275.938   3.1056E-01
   276.014   3.0019E-01
   276.091   2.8158E-01
   276.167   2.5612E-01
   276.243   2.2790E-01
   276.319   2.2931E-01
   276.396   2.6369E-01
   276.472   3.0319E-01
   276.549   3.1685E-01
   276.625   2.9847E-01
   276.702   2.7427E-01
   276.778   2.5987E-01
   276.855   2.4698E-01
   276.932   2.4139E-01
   277.008   2.5971E-01
   277.085   2.8546E-01
   277.162   2.8652E-01
   277.239   2.7421E-01
   277.316   2.8081E-01
   277.393   2.9840E-01
   277.469   2.9891E-01
   277.546   2.7768E-01
   277.624   2.5205E-01
   277.701   2.3362E-01
   277.778   2.1513E-01
   277.855   1.9377E-01
   277.932   1.7898E-01
   278.009   1.7267E-01
   278.087   1.7260E-01
   278.164   1.7704E-01
   278.242   1.7900E-01
   278.319   1.7554E-01
   278.396   1.7530E-01
   278.474   1.8147E-01
   278.552   1.8660E-01
   278.629   1.8640E-01
   278.707   1.7712E-01
   278.784   1.5894E-01
   278.862   1.4231E-01
   278.940   1.3078E-01
   279.018   1.1944E-01
   279.096   1.0863E-01
   279.174   1.0017E-01
   279.252   9.2008E-02
   279.330   8.0549E-02
   279.408   7.1202E-02
   279.486   7.5286E-02
   279.564   8.3167E-02
   279.642   7.7810E-02
   279.720   6.7049E-02
   279.799   6.4651E-02
   279.877   7.0298E-02
   279.955   7.7859E-02
   280.034   8.0321E-02
   280.112   7.5843E-02
   280.191   7.4235E-02
   280.269   7.8434E-02
   280.348   7.8359E-02
   280.426   7.6222E-02
   280.505   8.3072E-02
   280.584   9.8078E-02
   280.662   1.1376E-01
   280.741   1.2876E-01
   280.820   1.4508E-01
   280.899   1.6206E-01
   280.978   1.7524E-01
   281.057   1.8078E-01
   281.136   1.8131E-01
   281.215   1.8131E-01
   281.294   1.8860E-01
   281.373   2.1504E-01
   281.452   2.5238E-01
   281.532   2.7418E-01
   281.611   2.7355E-01
   281.690   2.6580E-01
   281.770   2.6813E-01
   281.849   2.8484E-01
   281.928   3.0492E-01
   282.008   3.1861E-01
   282.087   3.2243E-01
   282.167   3.1865E-01
   282.247   3.1868E-01
   282.326   3.3566E-01
   282.406   3.5554E-01
   282.486   3.4451E-01
   282.566   3.1691E-01
   282.646   3.1400E-01
   282.725   3.2871E-01
   282.805   3.4067E-01
   282.885   3.5696E-01
   282.965   3.7755E-01
   283.046   3.8788E-01
   283.126   3.8334E-01
   283.206   3.7403E-01
   283.286   3.7422E-01
   283.366   3.7808E-01
   283.447   3.6030E-01
   283.527   3.1756E-01
   283.607   2.9440E-01
   283.688   3.2529E-01
   283.768   3.7268E-01
   283.849   3.8878E-01
   283.930   3.7381E-01
   284.010   3.4754E-01
   284.091   3.3629E-01
   284.172   3.4626E-01
   284.252   3.4083E-01
   284.333   3.0892E-01
   284.414   2.9440E-01
   284.495   3.0014E-01
   284.576   2.8575E-01
   284.657   2.5464E-01
   284.738   2.2520E-01
   284.819   1.9405E-01
   284.900   1.5988E-01
   284.981   1.2756E-01
   285.063   1.0047E-01
   285.144   7.7143E-02
   285.225   6.2047E-02
   285.307   6.8806E-02
   285.388   9.6269E-02
   285.470   1.2775E-01
   285.551   1.5620E-01
   285.633   1.8480E-01
   285.714   2.1233E-01
   285.796   2.3776E-01
   285.878   2.7355E-01
   285.959   3.2279E-01
   286.041   3.6019E-01
   286.123   3.7352E-01
   286.205   3.7520E-01
   286.287   3.7889E-01
   286.369   3.9316E-01
   286.451   4.0689E-01
   286.533   4.0967E-01
   286.615   4.0181E-01
   286.697   3.7977E-01
   286.779   3.5527E-01
   286.862   3.4068E-01
   286.944   3.5325E-01
   287.026   4.0986E-01
   287.109   4.7273E-01
   287.191   4.9215E-01
   287.274   4.6977E-01
   287.356   4.3534E-01
   287.439   4.1534E-01
   287.522   4.0620E-01
   287.604   3.9160E-01
   287.687   3.8703E-01
   287.770   3.8508E-01
   287.853   3.5303E-01
   287.936   3.0535E-01
   288.018   2.5401E-01
   288.101   1.9399E-01
   288.184   1.6711E-01
   288.268   2.1144E-01
   288.351   3.0122E-01
   288.434   3.9332E-01
   288.517   4.5434E-01
   288.600   4.6802E-01
   288.684   4.5591E-01
   288.767   4.4604E-01
   288.850   4.4443E-01
   288.934   4.4538E-01
   289.017   4.4547E-01
   289.101   4.4865E-01
   289.184   4.5491E-01
   289.268   4.5680E-01
   289.352   4.5752E-01
   289.436   4.7792E-01
   289.519   5.2803E-01
   289.603   5.7593E-01
   289.687   5.9094E-01
   289.771   5.8777E-01
   289.855   5.9826E-01
   289.939   6.4500E-01
   290.023   7.0370E-01
   290.107   7.0473E-01
   290.192   6.6596E-01
   290.276   6.7586E-01
   290.360   7.2231E-01
   290.444   7.4260E-01
   290.529   7.2481E-01
   290.613   6.8878E-01
   290.698   6.5802E-01
   290.782   6.3656E-01
   290.867   6.2410E-01
   290.951   6.2053E-01
   291.036   6.1964E-01
   291.121   6.3156E-01
   291.206   6.7611E-01
   291.290   7.1848E-01
   291.375   6.9648E-01
   291.460   6.3158E-01
   291.545   5.9094E-01
   291.630   5.9307E-01
   291.715   5.9812E-01
   291.800   5.9126E-01
   291.886   6.0044E-01
   291.971   6.1572E-01
   292.056   6.2211E-01
   292.141   6.2649E-01
   292.227   6.0920E-01
   292.312   5.6300E-01
   292.398   5.2991E-01
   292.483   5.1870E-01
   292.569   5.0032E-01
   292.654   4.9607E-01
   292.740   5.1107E-01
   292.826   4.9764E-01
   292.912   5.0990E-01
   292.997   6.0081E-01
   293.083   6.8311E-01
   293.169   7.0570E-01
   293.255   6.8471E-01
   293.341   6.5745E-01
   293.427   6.6988E-01
   293.513   6.6434E-01
   293.600   5.5672E-01
   293.686   4.3809E-01
   293.772   4.2329E-01
   293.858   4.7249E-01
   293.945   5.2228E-01
   294.031   5.4206E-01
   294.118   5.4163E-01
   294.204   5.7547E-01
   294.291   6.1594E-01
   294.377   6.0168E-01
   294.464   5.8346E-01
   294.551   6.1752E-01
   294.638   6.0793E-01
   294.724   4.8727E-01
   294.811   3.7704E-01
   294.898   3.7725E-01
   294.985   4.6573E-01
   295.072   5.8244E-01
   295.159   6.7321E-01
   295.247   6.7302E-01
   295.334   5.8382E-01
   295.421   5.4230E-01
   295.508   5.9105E-01
   295.596   6.0729E-01
   295.683   5.8022E-01
   295.770   6.1140E-01
   295.858   6.6599E-01
   295.946   6.5466E-01
   296.033   6.1910E-01
   296.121   6.3906E-01
   296.209   7.0306E-01
   296.296   7.2514E-01
   296.384   6.4638E-01
   296.472   5.1097E-01
   296.560   3.9749E-01
   296.648   3.4213E-01
   296.736   3.7595E-01
   296.824   4.4659E-01
   296.912   4.4432E-01
   297.000   4.2159E-01
   297.089   4.6402E-01
   297.177   4.8874E-01
   297.265   4.5391E-01
   297.354   4.7796E-01
   297.442   5.8063E-01
   297.530   6.4820E-01
   297.619   6.9058E-01
   297.708   7.6075E-01
   297.796   7.7428E-01
   297.885   6.9607E-01
   297.974   6.0825E-01
   298.063   5.2834E-01
   298.151   4.5098E-01
   298.240   3.9917E-01
   298.329   3.5400E-01
   298.418   3.2049E-01
   298.507   3.2798E-01
   298.597   3.7006E-01
   298.686   4.1953E-01
   298.775   4.7288E-01
   298.864   5.4963E-01
   298.954   6.3679E-01
   299.043   6.8731E-01
   299.133   6.6707E-01
   299.222   6.0586E-01
   299.312   5.3489E-01
   299.401   4.4736E-01
   299.491   4.1885E-01
   299.581   5.1026E-01
   299.670   6.2522E-01
   299.760   6.6032E-01
   299.850   5.8646E-01
   299.940   4.4004E-01
   300.030   3.2812E-01
   300.120   2.9988E-01
   300.210   3.0582E-01
   300.300   3.4185E-01
   300.391   4.3748E-01
   300.481   5.3176E-01
   300.571   5.4218E-01
   300.661   4.7349E-01
   300.752   3.9826E-01
   300.842   3.7814E-01
   300.933   4.2637E-01
   301.023   5.1202E-01
   301.114   5.5941E-01
   301.205   5.5827E-01
   301.296   5.6946E-01
   301.386   5.8517E-01
   301.477   5.8486E-01
   301.568   5.7234E-01
   301.659   5.3126E-01
   301.750   4.6632E-01
   301.841   4.0196E-01
   301.932   3.3026E-01
   302.024   2.6128E-01
   302.115   2.9135E-01
   302.206   4.4728E-01
   302.297   5.8474E-01
   302.389   5.9765E-01
   302.480   5.2696E-01
   302.572   4.7447E-01
   302.663   5.4514E-01
   302.755   6.9724E-01
   302.847   7.6167E-01
   302.939   7.1818E-01
   303.030   6.5947E-01
   303.122   6.5841E-01
   303.214   7.3579E-01
   303.306   7.9933E-01
   303.398   8.0251E-01
   303.490   7.9419E-01
   303.582   7.3783E-01
   303.674   5.9171E-01
   303.767   4.9772E-01
   303.859   5.6127E-01
   303.951   6.4877E-01
   304.044   6.3413E-01
   304.136   5.7285E-01
   304.229   5.8057E-01
   304.321   6.6405E-01
   304.414   7.3910E-01
   304.507   7.6753E-01
   304.599   7.1523E-01
   304.692   5.8335E-01
   304.785   5.2509E-01
   304.878   6.1533E-01
   304.971   7.1050E-01
   305.064   7.5175E-01
   305.157   8.1989E-01
   305.250   8.4811E-01
   305.344   7.5933E-01
   305.437   6.7955E-01
   305.530   6.7785E-01
   305.623   6.3990E-01
   305.717   5.1572E-01
   305.810   4.0577E-01
   305.904   4.0186E-01
   305.998   5.1318E-01
   306.091   6.7114E-01
   306.185   7.6446E-01
   306.279   7.4355E-01
   306.373   6.6536E-01
   306.466   6.2316E-01
   306.560   6.1103E-01
   306.654   5.6354E-01
   306.748   5.4655E-01
   306.843   6.3433E-01
   306.937   7.4278E-01
   307.031   7.8401E-01
   307.125   7.6018E-01
   307.220   7.2409E-01
   307.314   7.2310E-01
   307.409   7.1048E-01
   307.503   6.6583E-01
   307.598   6.7968E-01
   307.692   7.2638E-01
   307.787   7.2279E-01
   307.882   7.2880E-01
   307.977   7.5494E-01
   308.071   7.1136E-01
   308.166   6.2874E-01
   308.261   6.1133E-01
   308.356   6.8533E-01
   308.452   7.9746E-01
   308.547   8.4311E-01
   308.642   7.7518E-01
   308.737   6.8617E-01
   308.833   6.6208E-01
   308.928   6.5799E-01
   309.023   6.0850E-01
   309.119   5.3045E-01
   309.215   4.6031E-01
   309.310   4.3831E-01
   309.406   5.1876E-01
   309.502   6.3126E-01
   309.598   6.2931E-01
   309.693   5.6311E-01
   309.789   5.5674E-01
   309.885   5.3432E-01
   309.981   4.3723E-01
   310.078   3.7405E-01
   310.174   4.2746E-01
   310.270   5.8602E-01
   310.366   7.5254E-01
   310.463   8.2528E-01
   310.559   8.3654E-01
   310.655   8.6661E-01
   310.752   9.2232E-01
   310.849   9.5350E-01
   310.945   9.1856E-01
   311.042   8.7401E-01
   311.139   8.9432E-01
   311.236   9.2926E-01
   311.333   9.0791E-01
   311.429   8.8118E-01
   311.526   8.8002E-01
   311.624   8.3609E-01
   311.721   7.5757E-01
   311.818   7.0609E-01
   311.915   6.7936E-01
   312.012   6.6399E-01
   312.110   6.6527E-01
   312.207   7.0336E-01
   312.305   7.7773E-01
   312.402   8.0424E-01
   312.500   7.5184E-01
   312.598   7.2591E-01
   312.695   7.5880E-01
   312.793   7.8487E-01
   312.891   7.8894E-01
   312.989   7.8076E-01
   313.087   7.6496E-01
   313.185   7.5411E-01
   313.283   7.4012E-01
   313.381   7.2409E-01
   313.480   7.3642E-01
   313.578   7.7456E-01
   313.676   8.3020E-01
   313.775   8.9972E-01
   313.873   9.2932E-01
   313.972   9.1221E-01
   314.070   9.0680E-01
   314.169   8.8584E-01
   314.268   7.5204E-01
   314.367   5.5016E-01
   314.465   4.7328E-01
   314.564   5.5928E-01
   314.663   6.6036E-01
   314.762   7.2800E-01
   314.861   7.9966E-01
   314.961   8.3662E-01
   315.060   8.2454E-01
   315.159   8.1380E-01
   315.259   8.1819E-01
   315.358   8.1105E-01
   315.457   7.8587E-01
   315.557   7.4948E-01
   315.657   6.6371E-01
   315.756   5.4208E-01
   315.856   4.7860E-01
   315.956   4.8880E-01
   316.056   5.2097E-01
   316.156   5.8142E-01
   316.256   6.7273E-01
   316.356   7.2716E-01
   316.456   7.2501E-01
   316.556   7.2939E-01
   316.656   7.6266E-01
   316.756   7.7293E-01
   316.857   7.6325E-01
   316.957   8.1664E-01
   317.058   9.2629E-01
   317.158   1.0019E+00
   317.259   1.0071E+00
   317.360   9.6265E-01
   317.460   9.3010E-01
   317.561   9.6037E-01
   317.662   9.7482E-01
   317.763   8.6639E-01
   317.864   6.9802E-01
   317.965   5.9668E-01
   318.066   5.7470E-01
   318.167   5.8857E-01
   318.269   6.2463E-01
   318.370   6.7148E-01
   318.471   7.1961E-01
   318.573   7.5941E-01
   318.674   7.8480E-01
   318.776   8.3849E-01
   318.878   9.1727E-01
   318.979   9.0323E-01
   319.081   7.6061E-01
   319.183   6.1686E-01
   319.285   5.8777E-01
   319.387   6.5761E-01
   319.489   7.2453E-01
   319.591   7.3895E-01
   319.693   7.6697E-01
   319.795   8.5097E-01
   319.898   8.8678E-01
   320.000   8.5166E-01
   320.102   8.5585E-01
   320.205   8.8889E-01
   320.307   9.2147E-01
   320.410   9.6653E-01
   320.513   9.8618E-01
   320.616   9.8560E-01
   320.718   9.6115E-01
   320.821   8.8079E-01
   320.924   7.8494E-01
   321.027   7.0793E-01
   321.130   6.5514E-01
   321.234   6.3373E-01
   321.337   6.2467E-01
   321.440   6.5342E-01
   321.543   7.2206E-01
   321.647   7.6717E-01
   321.750   8.2418E-01
   321.854   9.0942E-01
   321.958   9.5638E-01
   322.061   9.4056E-01
   322.165   8.5427E-01
   322.269   7.9126E-01
   322.373   8.2068E-01
   322.477   8.2021E-01
   322.581   7.4918E-01
   322.685   6.9177E-01
   322.789   6.4917E-01
   322.893   6.1690E-01
   322.997   6.4508E-01
   323.102   7.3628E-01
   323.206   8.0773E-01
   323.311   7.8679E-01
   323.415   7.2893E-01
   323.520   7.0807E-01
   323.625   7.1534E-01
   323.729   7.5293E-01
   323.834   7.8736E-01
   323.939   8.1030E-01
   324.044   8.6246E-01
   324.149   8.9103E-01
   324.254   8.7335E-01
   324.359   8.6446E-01
   324.465   9.0156E-01
   324.570   9.3762E-01
   324.675   8.9346E-01
   324.781   8.1375E-01
   324.886   7.8956E-01
   324.992   8.0782E-01
   325.098   8.3101E-01
   325.203   8.5883E-01
   325.309   8.7908E-01
   325.415   9.2750E-01
   325.521   1.0268E+00
   325.627   1.0829E+00
   325.733   1.0793E+00
   325.839   1.0996E+00
   325.945   1.1335E+00
   326.052   1.1275E+00
   326.158   1.0966E+00
   326.264   1.0457E+00
   326.371   9.7227E-01
   326.477   9.6534E-01
   326.584   1.0489E+00
   326.691   1.1160E+00
   326.797   1.1175E+00
   326.904   1.0703E+00
   327.011   1.0027E+00
   327.118   9.8484E-01
   327.225   1.0267E+00
   327.332   1.0657E+00
   327.439   1.0712E+00
   327.547   1.0372E+00
   327.654   1.0030E+00
   327.761   9.8534E-01
   327.869   9.7195E-01
   327.976   9.8136E-01
   328.084   9.8146E-01
   328.192   9.6924E-01
   328.299   9.8751E-01
   328.407   9.9099E-01
   328.515   9.2278E-01
   328.623   8.3662E-01
   328.731   8.4707E-01
   328.839   9.7110E-01
   328.947   1.0960E+00
   329.056   1.1316E+00
   329.164   1.1326E+00
   329.272   1.1713E+00
   329.381   1.1982E+00
   329.489   1.1866E+00
   329.598   1.1880E+00
   329.707   1.1886E+00
   329.815   1.1993E+00
   329.924   1.2686E+00
   330.033   1.2913E+00
   330.142   1.1839E+00
   330.251   1.0795E+00
   330.360   1.0375E+00
   330.469   9.5089E-01
   330.579   8.6630E-01
   330.688   9.0781E-01
   330.797   1.0125E+00
   330.907   1.0680E+00
   331.016   1.0728E+00
   331.126   1.0515E+00
   331.236   1.0012E+00
   331.345   9.4726E-01
   331.455   9.4961E-01
   331.565   1.0145E+00
   331.675   1.0763E+00
   331.785   1.0935E+00
   331.895   1.0762E+00
   332.005   1.0496E+00
   332.116   9.9183E-01
   332.226   9.0899E-01
   332.336   9.1641E-01
   332.447   1.0283E+00
   332.557   1.0943E+00
   332.668   1.0558E+00
   332.779   9.8140E-01
   332.889   9.4635E-01
   333.000   9.8754E-01
   333.111   1.0437E+00
   333.222   1.0583E+00
   333.333   1.0149E+00
   333.444   9.0873E-01
   333.556   8.1613E-01
   333.667   8.3812E-01
   333.778   9.3978E-01
   333.890   1.0024E+00
   334.001   9.9911E-01
   334.113   9.8002E-01
   334.225   1.0058E+00
   334.336   1.0746E+00
   334.448   1.1192E+00
   334.560   1.1189E+00
   334.672   1.0620E+00
   334.784   9.2854E-01
   334.896   8.4920E-01
   335.008   9.4417E-01
   335.121   1.0762E+00
   335.233   1.1095E+00
   335.345   1.0984E+00
   335.458   1.1243E+00
   335.570   1.1553E+00
   335.683   1.0943E+00
   335.796   9.0640E-01
   335.909   6.7998E-01
   336.022   5.6318E-01
   336.134   6.4715E-01
   336.247   8.5878E-01
   336.361   1.0281E+00
   336.474   1.0709E+00
   336.587   9.9224E-01
   336.700   8.6390E-01
   336.814   7.6554E-01
   336.927   7.2688E-01
   337.041   7.2653E-01
   337.154   7.3477E-01
   337.268   7.8430E-01
   337.382   8.9514E-01
   337.496   1.0322E+00
   337.610   1.1264E+00
   337.724   1.1001E+00
   337.838   9.4619E-01
   337.952   7.9970E-01
   338.066   8.1571E-01
   338.181   9.2318E-01
   338.295   9.7154E-01
   338.409   1.0048E+00
   338.524   1.0674E+00
   338.639   1.0661E+00
   338.753   1.0089E+00
   338.868   1.0326E+00
   338.983   1.0753E+00
   339.098   9.9350E-01
   339.213   8.6411E-01
   339.328   8.3671E-01
   339.443   9.2685E-01
   339.559   1.0301E+00
   339.674   1.0975E+00
   339.789   1.1447E+00
   339.905   1.2010E+00
   340.020   1.2457E+00
   340.136   1.2053E+00
   340.252   1.1266E+00
   340.368   1.0780E+00
   340.483   1.0548E+00
   340.599   1.0272E+00
   340.716   9.8572E-01
   340.832   9.7200E-01
   340.948   1.0006E+00
   341.064   1.0556E+00
   341.180   1.0422E+00
   341.297   9.0701E-01
   341.413   8.1848E-01
   341.530   8.8952E-01
   341.647   9.9584E-01
   341.763   1.0685E+00
   341.880   1.1520E+00
   341.997   1.2009E+00
   342.114   1.1507E+00
   342.231   1.0350E+00
   342.349   9.6551E-01
   342.466   1.0029E+00
   342.583   1.0434E+00
   342.700   1.0386E+00
   342.818   1.1032E+00
   342.936   1.2253E+00
   343.053   1.2526E+00
   343.171   1.1417E+00
   343.289   1.0284E+00
   343.407   1.0567E+00
   343.525   1.1263E+00
   343.643   1.0806E+00
   343.761   9.9764E-01
   343.879   9.0813E-01
   343.997   7.3709E-01
   344.116   6.0614E-01
   344.234   6.1452E-01
   344.353   6.8712E-01
   344.471   7.7163E-01
   344.590   8.3520E-01
   344.709   8.9818E-01
   344.828   9.8793E-01
   344.947   1.0806E+00
   345.066   1.1289E+00
   345.185   1.0654E+00
   345.304   1.0104E+00
   345.423   1.0863E+00
   345.543   1.1469E+00
   345.662   1.0950E+00
   345.781   9.9568E-01
   345.901   9.0912E-01
   346.021   8.4991E-01
   346.141   8.5372E-01
   346.260   9.6983E-01
   346.380   1.0943E+00
   346.500   1.0782E+00
   346.620   1.0273E+00
   346.741   1.0779E+00
   346.861   1.1426E+00
   346.981   1.1626E+00
   347.102   1.1211E+00
   347.222   1.0261E+00
   347.343   9.3965E-01
   347.464   8.3916E-01
   347.584   7.7076E-01
   347.705   8.4495E-01
   347.826   9.8433E-01
   347.947   1.0498E+00
   348.068   1.0419E+00
   348.189   9.9309E-01
   348.311   9.2938E-01
   348.432   9.1423E-01
   348.554   9.8879E-01
   348.675   1.0818E+00
   348.797   1.0427E+00
   348.918   8.9744E-01
   349.040   8.2115E-01
   349.162   8.4231E-01
   349.284   8.9709E-01
   349.406   9.5680E-01
   349.528   9.3559E-01
   349.650   8.5220E-01
   349.773   8.9560E-01
   349.895   1.0792E+00
   350.018   1.1962E+00
   350.140   1.2099E+00
   350.263   1.2383E+00
   350.385   1.2435E+00
   350.508   1.1593E+00
   350.631   1.1027E+00
   350.754   1.1322E+00
   350.877   1.1190E+00
   351.000   1.1021E+00
   351.124   1.0802E+00
   351.247   1.0541E+00
   351.370   1.0254E+00
   351.494   9.9562E-01
   351.617   9.6610E-01
   351.741   9.3818E-01
   351.865   9.1313E-01
   351.989   8.9217E-01
   352.113   8.7654E-01
   352.361   8.6615E-01
   352.609   8.9037E-01
   352.858   9.4595E-01
   353.107   1.0167E+00
   353.357   1.0842E+00
   353.607   1.1315E+00
   353.857   1.1524E+00
   354.108   1.1534E+00
   354.359   1.1429E+00
   354.610   1.1288E+00
   354.862   1.1143E+00
   355.114   1.0970E+00
   355.366   1.0738E+00
   355.619   1.0424E+00
   355.872   1.0052E+00
   356.125   9.7023E-01
   356.379   9.4610E-01
   356.633   9.3958E-01
   356.888   9.4442E-01
   357.143   9.4190E-01
   357.398   9.1169E-01
   357.654   8.3888E-01
   357.910   7.3924E-01
   358.166   6.5410E-01
   358.423   6.2744E-01
   358.680   6.9229E-01
   358.938   8.3093E-01
   359.195   9.9055E-01
   359.454   1.1155E+00
   359.712   1.1631E+00
   359.971   1.1371E+00
   360.231   1.0672E+00
   360.490   9.8441E-01
   360.750   9.1533E-01
   361.011   8.7375E-01
   361.272   8.6817E-01
   361.533   9.0625E-01
   361.795   9.8435E-01
   362.056   1.0763E+00
   362.319   1.1491E+00
   362.582   1.1715E+00
   362.845   1.1352E+00
   363.108   1.0644E+00
   363.372   9.9034E-01
   363.636   9.4168E-01
   363.901   9.3048E-01
   364.166   9.5252E-01
   364.431   1.0014E+00
   364.697   1.0696E+00
   364.964   1.1454E+00
   365.230   1.2143E+00
   365.497   1.2618E+00
   365.764   1.2795E+00
   366.032   1.2746E+00
   366.300   1.2605E+00
   366.569   1.2503E+00
   366.838   1.2485E+00
   367.107   1.2455E+00
   367.377   1.2289E+00
   367.647   1.1889E+00
   367.918   1.1346E+00
   368.189   1.0925E+00
   368.460   1.0908E+00
   368.732   1.1461E+00
   369.004   1.2336E+00
   369.276   1.3074E+00
   369.549   1.3224E+00
   369.822   1.2635E+00
   370.096   1.1702E+00
   370.370   1.0971E+00
   370.645   1.0920E+00
   370.920   1.1550E+00
   371.195   1.2412E+00
   371.471   1.2999E+00
   371.747   1.2944E+00
   372.024   1.2312E+00
   372.301   1.1376E+00
   372.578   1.0412E+00
   372.856   9.5985E-01
   373.134   8.9653E-01
   373.413   8.5104E-01
   373.692   8.2372E-01
   373.972   8.1764E-01
   374.251   8.3787E-01
   374.532   8.8919E-01
   374.813   9.6810E-01
   375.094   1.0541E+00
   375.375   1.1214E+00
   375.657   1.1479E+00
   375.940   1.1368E+00
   376.223   1.1137E+00
   376.506   1.1065E+00
   376.790   1.1335E+00
   377.074   1.1888E+00
   377.358   1.2577E+00
   377.644   1.3247E+00
   377.929   1.3728E+00
   378.215   1.3831E+00
   378.501   1.3370E+00
   378.788   1.2326E+00
   379.075   1.1093E+00
   379.363   1.0228E+00
   379.651   1.0216E+00
   379.939   1.1021E+00
   380.228   1.2104E+00
   380.518   1.2871E+00
   380.807   1.2932E+00
   381.098   1.2362E+00
   381.388   1.1399E+00
   381.679   1.0270E+00
   381.971   9.1324E-01
   382.263   8.0835E-01
   382.555   7.2149E-01
   382.848   6.6265E-01
   383.142   6.4333E-01
   383.436   6.7528E-01
   383.730   7.6266E-01
   384.025   8.7983E-01
   384.320   9.8344E-01
   384.615   1.0326E+00
   384.911   1.0205E+00
   385.208   9.8206E-01
   385.505   9.5915E-01
   385.802   9.7716E-01
   386.100   1.0212E+00
   386.399   1.0612E+00
   386.698   1.0707E+00
   386.997   1.0464E+00
   387.297   1.0017E+00
   387.597   9.5153E-01
   387.898   9.1086E-01
   388.199   8.9459E-01
   388.500   9.1725E-01
   388.802   9.8540E-01
   389.105   1.0853E+00
   389.408   1.1955E+00
   389.712   1.2960E+00
   390.016   1.3769E+00
   390.320   1.4352E+00
   390.625   1.4685E+00
   390.930   1.4737E+00
   391.236   1.4475E+00
   391.543   1.3861E+00
   391.850   1.2872E+00
   392.157   1.1502E+00
   392.465   9.7562E-01
   392.773   7.7515E-01
   393.082   5.9630E-01
   393.391   5.0401E-01
   393.701   5.5129E-01
   394.011   7.2504E-01
   394.322   9.6177E-01
   394.633   1.1941E+00
   394.945   1.3637E+00
   395.257   1.4232E+00
   395.570   1.3307E+00
   395.883   1.0996E+00
   396.197   8.3523E-01
   396.511   6.6453E-01
   396.825   6.6684E-01
   397.141   8.0759E-01
   397.456   1.0105E+00
   397.772   1.2095E+00
   398.089   1.3773E+00
   398.406   1.5064E+00
   398.724   1.5922E+00
   399.042   1.6387E+00
   399.361   1.6553E+00
   399.680   1.6525E+00
   400.000   1.6435E+00
   400.320   1.6437E+00
   400.641   1.6673E+00
   400.962   1.7139E+00
   401.284   1.7670E+00
   401.606   1.8085E+00
   401.929   1.8274E+00
   402.253   1.8228E+00
   402.576   1.7962E+00
   402.901   1.7522E+00
   403.226   1.7012E+00
   403.551   1.6545E+00
   403.877   1.6209E+00
   404.204   1.6042E+00
   404.531   1.6067E+00
   404.858   1.6264E+00
   405.186   1.6529E+00
   405.515   1.6731E+00
   405.844   1.6768E+00
   406.174   1.6606E+00
   406.504   1.6239E+00
   406.835   1.5743E+00
   407.166   1.5392E+00
   407.498   1.5531E+00
   407.830   1.6311E+00
   408.163   1.7383E+00
   408.497   1.8203E+00
   408.831   1.8379E+00
   409.165   1.7934E+00
   409.500   1.7062E+00
   409.836   1.6020E+00
   410.172   1.5225E+00
   410.509   1.5139E+00
   410.846   1.5955E+00
   411.184   1.7207E+00
   411.523   1.8196E+00
   411.862   1.8489E+00
   412.201   1.8268E+00
   412.541   1.7917E+00
   412.882   1.7702E+00
   413.223   1.7621E+00
   413.565   1.7595E+00
   413.907   1.7561E+00
   414.250   1.7490E+00
   414.594   1.7368E+00
   414.938   1.7242E+00
   415.282   1.7258E+00
   415.628   1.7556E+00
   415.973   1.8061E+00
   416.320   1.8416E+00
   416.667   1.8265E+00
   417.014   1.7632E+00
   417.362   1.6930E+00
   417.711   1.6572E+00
   418.060   1.6614E+00
   418.410   1.6820E+00
   418.760   1.6966E+00
   419.111   1.7016E+00
   419.463   1.7050E+00
   419.815   1.7146E+00
   420.168   1.7341E+00
   420.521   1.7650E+00
   420.875   1.8007E+00
   421.230   1.8164E+00
   421.585   1.7832E+00
   421.941   1.7013E+00
   422.297   1.6185E+00
   422.654   1.5890E+00
   423.012   1.6249E+00
   423.370   1.6902E+00
   423.729   1.7452E+00
   424.088   1.7725E+00
   424.448   1.7722E+00
   424.809   1.7490E+00
   425.170   1.7185E+00
   425.532   1.7007E+00
   425.894   1.7036E+00
   426.257   1.7081E+00
   426.621   1.6884E+00
   426.985   1.6405E+00
   427.350   1.5903E+00
   427.716   1.5658E+00
   428.082   1.5706E+00
   428.449   1.5878E+00
   428.816   1.5951E+00
   429.185   1.5605E+00
   429.553   1.4500E+00
   429.923   1.2784E+00
   430.293   1.1558E+00
   430.663   1.2042E+00
   431.034   1.4157E+00
   431.406   1.6369E+00
   431.779   1.7272E+00
   432.152   1.6981E+00
   432.526   1.6550E+00
   432.900   1.6682E+00
   433.276   1.7124E+00
   433.651   1.7341E+00
   434.028   1.7153E+00
   434.405   1.6827E+00
   434.783   1.6668E+00
   435.161   1.6832E+00
   435.540   1.7378E+00
   435.920   1.8224E+00
   436.300   1.9025E+00
   436.681   1.9377E+00
   437.063   1.9097E+00
   437.445   1.8238E+00
   437.828   1.7003E+00
   438.212   1.5986E+00
   438.596   1.5932E+00
   438.982   1.6926E+00
   439.367   1.8004E+00
   439.754   1.8174E+00
   440.141   1.7594E+00
   440.529   1.7268E+00
   440.917   1.7819E+00
   441.306   1.8848E+00
   441.696   1.9664E+00
   442.087   1.9964E+00
   442.478   1.9846E+00
   442.870   1.9497E+00
   443.262   1.9202E+00
   443.656   1.9251E+00
   444.050   1.9587E+00
   444.444   1.9742E+00
   444.840   1.9353E+00
   445.236   1.8664E+00
   445.633   1.8209E+00
   446.030   1.8285E+00
   446.429   1.8845E+00
   446.828   1.9715E+00
   447.227   2.0506E+00
   447.628   2.0751E+00
   448.029   2.0378E+00
   448.430   1.9880E+00
   448.833   1.9745E+00
   449.236   2.0019E+00
   449.640   2.0509E+00
   450.045   2.1032E+00
   450.450   2.1433E+00
   450.857   2.1580E+00
   451.264   2.1391E+00
   451.671   2.0832E+00
   452.080   2.0073E+00
   452.489   1.9518E+00
   452.899   1.9436E+00
   453.309   1.9641E+00
   453.721   1.9794E+00
   454.133   1.9815E+00
   454.545   1.9867E+00
   454.959   2.0059E+00
   455.373   2.0312E+00
   455.789   2.0518E+00
   456.204   2.0685E+00
   456.621   2.0894E+00
   457.038   2.1094E+00
   457.457   2.1038E+00
   457.875   2.0574E+00
   458.295   1.9990E+00
   458.716   1.9733E+00
   459.137   1.9884E+00
   459.559   2.0166E+00
   459.982   2.0355E+00
   460.405   2.0438E+00
   460.829   2.0467E+00
   461.255   2.0528E+00
   461.681   2.0704E+00
   462.107   2.0949E+00
   462.535   2.1065E+00
   462.963   2.0916E+00
   463.392   2.0555E+00
   463.822   2.0120E+00
   464.253   1.9840E+00
   464.684   1.9957E+00
   465.116   2.0328E+00
   465.549   2.0379E+00
   465.983   1.9866E+00
   466.418   1.9363E+00
   466.853   1.9477E+00
   467.290   1.9975E+00
   467.727   2.0227E+00
   468.165   2.0113E+00
   468.604   2.0008E+00
   469.043   2.0055E+00
   469.484   1.9917E+00
   469.925   1.9383E+00
   470.367   1.8918E+00
   470.810   1.9114E+00
   471.254   1.9818E+00
   471.698   2.0402E+00
   472.144   2.0560E+00
   472.590   2.0395E+00
   473.037   2.0114E+00
   473.485   1.9992E+00
   473.934   2.0184E+00
   474.383   2.0482E+00
   474.834   2.0575E+00
   475.285   2.0375E+00
   475.737   1.9968E+00
   476.190   1.9635E+00
   476.644   1.9786E+00
   477.099   2.0381E+00
   477.555   2.0740E+00
   478.011   2.0499E+00
   478.469   2.0202E+00
   478.927   2.0381E+00
   479.386   2.0724E+00
   479.846   2.0702E+00
   480.307   2.0471E+00
   480.769   2.0529E+00
   481.232   2.0826E+00
   481.696   2.0865E+00
   482.160   2.0543E+00
   482.625   2.0257E+00
   483.092   2.0218E+00
   483.559   2.0216E+00
   484.027   2.0052E+00
   484.496   1.9734E+00
   484.966   1.9262E+00
   485.437   1.8452E+00
   485.909   1.7273E+00
   486.381   1.6450E+00
   486.855   1.6798E+00
   487.329   1.7916E+00
   487.805   1.8777E+00
   488.281   1.9116E+00
   488.759   1.9273E+00
   489.237   1.9488E+00
   489.716   1.9824E+00
   490.196   2.0100E+00
   490.677   1.9942E+00
   491.159   1.9383E+00
   491.642   1.8988E+00
   492.126   1.8980E+00
   492.611   1.8952E+00
   493.097   1.8802E+00
   493.583   1.9121E+00
   494.071   2.0034E+00
   494.560   2.0510E+00
   495.050   1.9970E+00
   495.540   1.9382E+00
   496.032   1.9608E+00
   496.524   2.0214E+00
   497.018   2.0500E+00
   497.512   2.0156E+00
   498.008   1.9315E+00
   498.504   1.8812E+00
   499.002   1.9196E+00
   499.500   1.9661E+00
   500.000   1.9355E+00
   500.501   1.8652E+00
   501.002   1.8215E+00
   501.505   1.8202E+00
   502.008   1.8527E+00
   502.513   1.8993E+00
   503.018   1.9351E+00
   503.525   1.9333E+00
   504.032   1.8947E+00
   504.541   1.8835E+00
   505.051   1.9388E+00
   505.561   1.9959E+00
   506.073   1.9954E+00
   506.586   1.9597E+00
   507.099   1.9262E+00
   507.614   1.9120E+00
   508.130   1.9172E+00
   508.647   1.9240E+00
   509.165   1.9228E+00
   509.684   1.9228E+00
   510.204   1.9365E+00
   510.725   1.9709E+00
   511.247   1.9999E+00
   511.771   1.9710E+00
   512.295   1.8997E+00
   512.821   1.8603E+00
   513.347   1.8626E+00
   513.875   1.8666E+00
   514.403   1.8772E+00
   514.933   1.9103E+00
   515.464   1.8980E+00
   515.996   1.7845E+00
   516.529   1.6843E+00
   517.063   1.6973E+00
   517.598   1.7187E+00
   518.135   1.6773E+00
   518.672   1.6849E+00
   519.211   1.7800E+00
   519.751   1.8409E+00
   520.291   1.8391E+00
   520.833   1.8629E+00
   521.376   1.9016E+00
   521.921   1.8793E+00
   522.466   1.8363E+00
   523.013   1.8520E+00
   523.560   1.9025E+00
   524.109   1.9414E+00
   524.659   1.9701E+00
   525.210   1.9651E+00
   525.762   1.8597E+00
   526.316   1.7179E+00
   526.870   1.7108E+00
   527.426   1.8133E+00
   527.983   1.8825E+00
   528.541   1.9027E+00
   529.101   1.9144E+00
   529.661   1.9264E+00
   530.223   1.9439E+00
   530.786   1.9757E+00
   531.350   1.9740E+00
   531.915   1.8756E+00
   532.481   1.7930E+00
   533.049   1.8538E+00
   533.618   1.9176E+00
   534.188   1.8835E+00
   534.759   1.8958E+00
   535.332   1.9719E+00
   535.906   1.9599E+00
   536.481   1.8856E+00
   537.057   1.8674E+00
   537.634   1.8928E+00
   538.213   1.9088E+00
   538.793   1.8944E+00
   539.374   1.8487E+00
   539.957   1.7926E+00
   540.541   1.7851E+00
   541.126   1.8473E+00
   541.712   1.8771E+00
   542.299   1.8441E+00
   542.888   1.8445E+00
   543.478   1.8790E+00
   544.070   1.8877E+00
   544.662   1.8874E+00
   545.256   1.9001E+00
   545.852   1.9036E+00
   546.448   1.8853E+00
   547.046   1.8551E+00
   547.645   1.8406E+00
   548.246   1.8562E+00
   548.847   1.8842E+00
   549.451   1.8971E+00
   550.055   1.8817E+00
   550.661   1.8688E+00
   551.268   1.8737E+00
   551.876   1.8658E+00
   552.486   1.8544E+00
   553.097   1.8699E+00
   553.710   1.8912E+00
   554.324   1.9010E+00
   554.939   1.9092E+00
   555.556   1.8942E+00
   556.174   1.8476E+00
   556.793   1.8323E+00
   557.414   1.8458E+00
   558.036   1.8218E+00
   558.659   1.7925E+00
   559.284   1.8036E+00
   559.910   1.8319E+00
   560.538   1.8451E+00
   561.167   1.8352E+00
   561.798   1.8347E+00
   562.430   1.8519E+00
   563.063   1.8629E+00
   563.698   1.8671E+00
   564.334   1.8616E+00
   564.972   1.8314E+00
   565.611   1.8048E+00
   566.251   1.8196E+00
   566.893   1.8664E+00
   567.537   1.8823E+00
   568.182   1.8373E+00
   568.828   1.8318E+00
   569.476   1.8553E+00
   570.125   1.8102E+00
   570.776   1.7794E+00
   571.429   1.8212E+00
   572.082   1.8752E+00
   572.738   1.8949E+00
   573.394   1.8844E+00
   574.053   1.8768E+00
   574.713   1.8635E+00
   575.374   1.8405E+00
   576.037   1.8386E+00
   576.701   1.8577E+00
   577.367   1.8615E+00
   578.035   1.8196E+00
   578.704   1.7951E+00
   579.374   1.8239E+00
   580.046   1.8424E+00
   580.720   1.8450E+00
   581.395   1.8560E+00
   582.072   1.8722E+00
   582.751   1.8732E+00
   583.431   1.8646E+00
   584.112   1.8683E+00
   584.795   1.8403E+00
   585.480   1.7964E+00
   586.166   1.8129E+00
   586.854   1.8483E+00
   587.544   1.8472E+00
   588.235   1.7893E+00
   588.928   1.6743E+00
   589.623   1.6485E+00
   590.319   1.7742E+00
   591.017   1.8186E+00
   591.716   1.7944E+00
   592.417   1.8080E+00
   593.120   1.8097E+00
   593.824   1.7921E+00
   594.530   1.7793E+00
   595.238   1.7826E+00
   595.948   1.7993E+00
   596.659   1.8066E+00
   597.372   1.7895E+00
   598.086   1.7679E+00
   598.802   1.7684E+00
   599.520   1.7750E+00
   600.240   1.7581E+00
   600.962   1.7534E+00
   601.685   1.7459E+00
   602.410   1.7294E+00
   603.136   1.7651E+00
   603.865   1.7930E+00
   604.595   1.7799E+00
   605.327   1.7694E+00
   606.061   1.7653E+00
   606.796   1.7643E+00
   607.533   1.7603E+00
   608.273   1.7501E+00
   609.013   1.7501E+00
   609.756   1.7346E+00
   610.501   1.7141E+00
   611.247   1.7378E+00
   611.995   1.7331E+00
   612.745   1.6984E+00
   613.497   1.6894E+00
   614.251   1.7078E+00
   615.006   1.7270E+00
   615.764   1.6835E+00
   616.523   1.6285E+00
   617.284   1.6831E+00
   618.047   1.7296E+00
   618.812   1.7196E+00
   619.579   1.7165E+00
   620.347   1.7323E+00
   621.118   1.7108E+00
   621.891   1.7031E+00
   622.665   1.7077E+00
   623.441   1.6763E+00
   624.220   1.6616E+00
   625.000   1.6444E+00
   625.782   1.6545E+00
   626.566   1.6976E+00
   627.353   1.7034E+00
   628.141   1.7006E+00
   628.931   1.6941E+00
   629.723   1.6742E+00
   630.517   1.6527E+00
   631.313   1.6421E+00
   632.111   1.6453E+00
   632.911   1.6537E+00
   633.714   1.6592E+00
   634.518   1.6604E+00
   635.324   1.6594E+00
   636.132   1.6580E+00
   636.943   1.6581E+00
   637.755   1.6597E+00
   638.570   1.6582E+00
   639.386   1.6481E+00
   640.205   1.6316E+00
   641.026   1.6189E+00
   641.849   1.6169E+00
   642.674   1.6223E+00
   643.501   1.6281E+00
   644.330   1.6309E+00
   645.161   1.6302E+00
   645.995   1.6244E+00
   646.831   1.6102E+00
   647.668   1.5872E+00
   648.508   1.5673E+00
   649.351   1.5678E+00
   650.195   1.5886E+00
   651.042   1.6090E+00
   651.890   1.6135E+00
   652.742   1.6061E+00
   653.595   1.5940E+00
   654.450   1.5671E+00
   655.308   1.5064E+00
   656.168   1.4287E+00
   657.030   1.3969E+00
   657.895   1.4470E+00
   658.762   1.5297E+00
   659.631   1.5776E+00
   660.502   1.5816E+00
   661.376   1.5699E+00
   662.252   1.5613E+00
   663.130   1.5599E+00
   664.011   1.5636E+00
   664.894   1.5636E+00
   665.779   1.5536E+00
   666.667   1.5422E+00
   667.557   1.5417E+00
   668.449   1.5482E+00
   669.344   1.5457E+00
   670.241   1.5316E+00
   671.141   1.5203E+00
   672.043   1.5207E+00
   672.948   1.5242E+00
   673.854   1.5216E+00
   674.764   1.5156E+00
   675.676   1.5127E+00
   676.590   1.5123E+00
   677.507   1.5100E+00
   678.426   1.5052E+00
   679.348   1.5007E+00
   680.272   1.4979E+00
   681.199   1.4953E+00
   682.128   1.4908E+00
   683.060   1.4818E+00
   683.995   1.4689E+00
   684.932   1.4604E+00
   685.871   1.4625E+00
   686.813   1.4694E+00
   687.758   1.4713E+00
   688.705   1.4669E+00
   689.655   1.4599E+00
   690.608   1.4539E+00
   691.563   1.4515E+00
   692.521   1.4518E+00
   693.481   1.4507E+00
   694.444   1.4452E+00
   695.410   1.4345E+00
   696.379   1.4236E+00
   697.350   1.4222E+00
   698.324   1.4281E+00
   699.301   1.4240E+00
   700.280   1.4050E+00
   701.262   1.3881E+00
   702.247   1.3857E+00
   703.235   1.3959E+00
   704.225   1.4107E+00
   705.219   1.4182E+00
   706.215   1.4129E+00
   707.214   1.4017E+00
   708.215   1.3922E+00
   709.220   1.3882E+00
   710.227   1.3888E+00
   711.238   1.3878E+00
   712.251   1.3821E+00
   713.267   1.3759E+00
   714.286   1.3720E+00
   715.308   1.3688E+00
   716.332   1.3630E+00
   717.360   1.3519E+00
   718.391   1.3380E+00
   719.424   1.3297E+00
   720.461   1.3310E+00
   721.501   1.3383E+00
   722.543   1.3473E+00
   723.589   1.3537E+00
   724.638   1.3540E+00
   725.689   1.3464E+00
   726.744   1.3346E+00
   727.802   1.3254E+00
   728.863   1.3225E+00
   729.927   1.3253E+00
   730.994   1.3284E+00
   732.064   1.3262E+00
   733.138   1.3202E+00
   734.214   1.3144E+00
   735.294   1.3122E+00
   736.377   1.3118E+00
   737.463   1.3048E+00
   738.552   1.2888E+00
   739.645   1.2707E+00
   740.741   1.2622E+00
   741.840   1.2723E+00
   742.942   1.2868E+00
   744.048   1.2872E+00
   745.156   1.2827E+00
   746.269   1.2844E+00
   747.384   1.2842E+00
   748.503   1.2770E+00
   749.625   1.2696E+00
   750.751   1.2657E+00
   751.880   1.2636E+00
   753.012   1.2619E+00
   754.148   1.2599E+00
   755.287   1.2571E+00
   756.430   1.2532E+00
   757.576   1.2485E+00
   758.725   1.2440E+00
   759.878   1.2411E+00
   761.035   1.2402E+00
   762.195   1.2415E+00
   763.359   1.2454E+00
   764.526   1.2433E+00
   765.697   1.2200E+00
   766.871   1.1929E+00
   768.049   1.1933E+00
   769.231   1.2053E+00
   770.416   1.2075E+00
   771.605   1.2091E+00
   772.798   1.2104E+00
   773.994   1.2006E+00
   775.194   1.1922E+00
   776.398   1.1960E+00
   777.605   1.1970E+00
   778.816   1.1914E+00
   780.031   1.1900E+00
   781.250   1.1883E+00
   782.473   1.1818E+00
   783.699   1.1798E+00
   784.929   1.1824E+00
   786.164   1.1817E+00
   787.402   1.1798E+00
   788.644   1.1777E+00
   789.889   1.1706E+00
   791.139   1.1601E+00
   792.393   1.1506E+00
   793.651   1.1410E+00
   794.913   1.1383E+00
   796.178   1.1487E+00
   797.448   1.1515E+00
   798.722   1.1412E+00
   800.000   1.1405E+00
   801.282   1.1437E+00
   802.568   1.1361E+00
   803.859   1.1239E+00
   805.153   1.1195E+00
   806.452   1.1227E+00
   807.754   1.1129E+00
   809.061   1.1006E+00
   810.373   1.1093E+00
   811.688   1.1196E+00
   813.008   1.1176E+00
   814.332   1.1117E+00
   815.661   1.1114E+00
   816.993   1.1043E+00
   818.331   1.0784E+00
   819.672   1.0698E+00
   821.018   1.0810E+00
   822.368   1.0797E+00
   823.723   1.0757E+00
   825.083   1.0780E+00
   826.446   1.0793E+00
   827.815   1.0770E+00
   829.187   1.0755E+00
   830.565   1.0722E+00
   831.947   1.0519E+00
   833.333   1.0380E+00
   834.725   1.0498E+00
   836.120   1.0561E+00
   837.521   1.0496E+00
   838.926   1.0441E+00
   840.336   1.0455E+00
   841.751   1.0397E+00
   843.170   1.0299E+00
   844.595   1.0319E+00
   846.024   1.0347E+00
   847.458   1.0112E+00
   848.896   9.7879E-01
   850.340   9.9013E-01
   851.789   1.0031E+00
   853.242   9.5514E-01
   854.701   8.9352E-01
   856.164   9.5157E-01
   857.633   1.0149E+00
   859.107   9.9993E-01
   860.585   9.9565E-01
   862.069   9.9993E-01
   863.558   9.9717E-01
   865.052   9.6291E-01
   866.551   8.9968E-01
   868.056   9.1994E-01
   869.565   9.7708E-01
   871.080   9.8524E-01
   872.600   9.7938E-01
   874.126   9.7876E-01
   875.657   9.8366E-01
   877.193   9.8016E-01
   878.735   9.6336E-01
   880.282   9.5907E-01
   881.834   9.5422E-01
   883.392   9.5188E-01
   884.956   9.6012E-01
   886.525   9.5188E-01
   888.099   9.4700E-01
   889.680   9.4813E-01
   891.266   9.4238E-01
   892.857   9.3515E-01
   894.454   9.3474E-01
   896.057   9.3924E-01
   897.666   9.3021E-01
   899.281   9.1107E-01
   900.901   9.0538E-01
   902.527   9.0524E-01
   904.159   8.9774E-01
   905.797   8.9340E-01
   907.441   8.8330E-01
   909.091   8.6387E-01
   910.747   8.6767E-01
   912.409   8.7516E-01
   914.077   8.7116E-01
   915.751   8.6256E-01
   917.431   8.5980E-01
   919.118   8.5458E-01
   920.810   8.3392E-01
   922.509   8.2218E-01
   924.214   8.2328E-01
   925.926   8.2622E-01
   927.644   8.3020E-01
   929.368   8.3106E-01
   931.099   8.2754E-01
   932.836   8.3028E-01
   934.579   8.2172E-01
   936.330   8.0662E-01
   938.086   8.0477E-01
   939.850   8.0596E-01
   941.620   7.9375E-01
   943.396   7.8781E-01
   945.180   7.9754E-01
   946.970   7.9248E-01
   948.767   7.7961E-01
   950.570   7.7718E-01
   952.381   7.7382E-01
   954.198   7.6360E-01
   956.023   7.6684E-01
   957.854   7.7350E-01
   959.693   7.6935E-01
   961.538   7.6698E-01
   963.391   7.6676E-01
   965.251   7.6210E-01
   967.118   7.6067E-01
   968.992   7.7219E-01
   970.874   7.6579E-01
   972.763   7.6238E-01
   974.659   7.5393E-01
   976.563   7.6269E-01
   978.474   7.6888E-01
   980.392   7.6375E-01
   982.318   7.6418E-01
   984.252   7.6968E-01
   986.193   7.6209E-01
   988.142   7.6153E-01
   990.099   7.6631E-01
   992.063   7.5882E-01
   994.036   7.5570E-01
   996.016   7.4953E-01
   998.004   7.4244E-01
  1000.000   7.4429E-01
  1002.004   7.4504E-01
  1004.016   7.4290E-01
  1006.036   7.3934E-01
  1008.065   7.3660E-01
  1010.101   7.3541E-01
  1012.146   7.3417E-01
  1014.199   7.3108E-01
  1016.260   7.2543E-01
  1018.330   7.1735E-01
  1020.408   7.0897E-01
  1022.495   7.0464E-01
  1024.590   7.0622E-01
  1026.694   7.0807E-01
  1028.807   7.0325E-01
  1030.928   6.9371E-01
  1033.058   6.8814E-01
  1035.197   6.8962E-01
  1037.344   6.9142E-01
  1039.501   6.8779E-01
  1041.667   6.8253E-01
  1043.841   6.8220E-01
  1046.025   6.8489E-01
  1048.218   6.8231E-01
  1050.420   6.7210E-01
  1052.632   6.6095E-01
  1054.852   6.5430E-01
  1057.082   6.5057E-01
  1059.322   6.4668E-01
  1061.571   6.4311E-01
  1063.830   6.4193E-01
  1066.098   6.4262E-01
  1068.376   6.4253E-01
  1070.664   6.4047E-01
  1072.961   6.3731E-01
  1075.269   6.3379E-01
  1077.586   6.2978E-01
  1079.914   6.2519E-01
  1082.251   6.2053E-01
  1084.599   6.1661E-01
  1086.957   6.1439E-01
  1089.325   6.1413E-01
  1091.703   6.1287E-01
  1094.092   6.0721E-01
  1096.491   6.0079E-01
  1098.901   6.0097E-01
  1101.322   6.0595E-01
  1103.753   6.0688E-01
  1106.195   6.0300E-01
  1108.647   6.0139E-01
  1111.111   6.0279E-01
  1113.586   6.0070E-01
  1116.071   5.9362E-01
  1118.568   5.8651E-01
  1121.076   5.8154E-01
  1123.596   5.7668E-01
  1126.126   5.7148E-01
  1128.668   5.6788E-01
  1131.222   5.6638E-01
  1133.787   5.6557E-01
  1136.364   5.6402E-01
  1138.952   5.6095E-01
  1141.553   5.5785E-01
  1144.165   5.5721E-01
  1146.789   5.5641E-01
  1149.425   5.5100E-01
  1152.074   5.4605E-01
  1154.734   5.4896E-01
  1157.407   5.5300E-01
  1160.093   5.4857E-01
  1162.791   5.3926E-01
  1165.501   5.3233E-01
  1168.224   5.3048E-01
  1170.960   5.3216E-01
  1173.709   5.3188E-01
  1176.471   5.2730E-01
  1179.245   5.2070E-01
  1182.033   5.1500E-01
  1184.834   5.1231E-01
  1187.648   5.1205E-01
  1190.476   5.1200E-01
  1193.317   5.0968E-01
  1196.172   5.0465E-01
  1199.041   4.9957E-01
  1201.923   4.9652E-01
  1204.819   4.9551E-01
  1207.729   4.9334E-01
  1210.654   4.8953E-01
  1213.592   4.9205E-01
  1216.545   4.9840E-01
  1219.512   4.9343E-01
  1222.494   4.8209E-01
  1225.490   4.7908E-01
  1228.501   4.8219E-01
  1231.527   4.8394E-01
  1234.568   4.8096E-01
  1237.624   4.7750E-01
  1240.695   4.7750E-01
  1243.781   4.7378E-01
  1246.883   4.6753E-01
  1250.000   4.6964E-01
  1253.133   4.7304E-01
  1256.281   4.6705E-01
  1259.446   4.5500E-01
  1262.626   4.4433E-01
  1265.823   4.3934E-01
  1269.036   4.3710E-01
  1272.265   4.3946E-01
  1275.510   4.4886E-01
  1278.772   4.4895E-01
  1282.051   4.3754E-01
  1285.347   4.3425E-01
  1288.660   4.3871E-01
  1291.990   4.4151E-01
  1295.337   4.3979E-01
  1298.701   4.3813E-01
  1302.083   4.3773E-01
  1305.483   4.3330E-01
  1308.901   4.2588E-01
  1312.336   4.1955E-01
  1315.789   4.1653E-01
  1319.261   4.1617E-01
  1322.751   4.1558E-01
  1326.260   4.1247E-01
  1329.787   4.0823E-01
  1333.333   4.0406E-01
  1336.898   4.0061E-01
  1340.483   3.9872E-01
  1344.086   3.9698E-01
  1347.709   3.9358E-01
  1351.351   3.8866E-01
  1355.014   3.8422E-01
  1358.696   3.8125E-01
  1362.398   3.7779E-01
  1366.120   3.7217E-01
  1369.863   3.6907E-01
  1373.626   3.6898E-01
  1377.410   3.6781E-01
  1381.215   3.6497E-01
  1385.042   3.6415E-01
  1388.889   3.6229E-01
  1392.758   3.5829E-01
  1396.648   3.5697E-01
  1400.560   3.5471E-01
  1404.494   3.5179E-01
  1408.451   3.4917E-01
  1412.429   3.4623E-01
  1416.431   3.4438E-01
  1420.455   3.4296E-01
  1424.501   3.4554E-01
  1428.571   3.4562E-01
  1432.665   3.3720E-01
  1436.782   3.3166E-01
  1440.922   3.2858E-01
  1445.087   3.2162E-01
  1449.275   3.2054E-01
  1453.488   3.1881E-01
  1457.726   3.0958E-01
  1461.988   3.1461E-01
  1466.276   3.1324E-01
  1470.588   3.1063E-01
  1474.926   3.0929E-01
  1479.290   3.0568E-01
  1483.680   3.0143E-01
  1488.095   2.9914E-01
  1492.537   3.0219E-01
  1497.006   3.0046E-01
  1501.502   2.9678E-01
  1506.024   2.9528E-01
  1510.574   2.9192E-01
  1515.152   2.9001E-01
  1519.757   2.8796E-01
  1524.390   2.8772E-01
  1529.052   2.8776E-01
  1533.742   2.7969E-01
  1538.462   2.7443E-01
  1543.210   2.7474E-01
  1547.988   2.7393E-01
  1552.795   2.7295E-01
  1557.632   2.7181E-01
  1562.500   2.6868E-01
  1567.398   2.6340E-01
  1572.327   2.6026E-01
  1577.287   2.5874E-01
  1582.278   2.5538E-01
  1587.302   2.5175E-01
  1592.357   2.4676E-01
  1597.444   2.4611E-01
  1602.564   2.4619E-01
  1607.717   2.4284E-01
  1612.903   2.4369E-01
  1618.123   2.4234E-01
  1623.377   2.4119E-01
  1628.664   2.4311E-01
  1633.987   2.3980E-01
  1639.344   2.3577E-01
  1644.737   2.3445E-01
  1650.165   2.3452E-01
  1655.629   2.3395E-01
  1661.130   2.3323E-01
  1666.667   2.2997E-01
  1672.241   2.2712E-01
  1677.852   2.2112E-01
  1683.502   2.2029E-01
  1689.189   2.1920E-01
  1694.915   2.1651E-01
  1700.680   2.1563E-01
  1706.485   2.1288E-01
  1712.329   2.0576E-01
  1718.213   2.0963E-01
  1724.138   2.0200E-01
  1730.104   1.9286E-01
  1736.111   1.8935E-01
  1742.160   1.8982E-01
  1748.252   1.8600E-01
  1754.386   1.8785E-01
  1760.563   1.8606E-01
  1766.784   1.8192E-01
  1773.050   1.7668E-01
  1779.359   1.7228E-01
  1785.714   1.7033E-01
  1792.115   1.6982E-01
  1798.561   1.7143E-01
  1805.054   1.6844E-01
  1811.594   1.6228E-01
  1818.182   1.5970E-01
  1824.818   1.5759E-01
  1831.502   1.5535E-01
  1838.235   1.5155E-01
  1845.018   1.5190E-01
  1851.852   1.4837E-01
  1858.736   1.4454E-01
  1865.672   1.4260E-01
  1872.659   1.3635E-01
  1879.699   1.3725E-01
  1886.792   1.3844E-01
  1893.939   1.3744E-01
  1901.141   1.3502E-01
  1908.397   1.3618E-01
  1915.709   1.3669E-01
  1923.077   1.3374E-01
  1930.502   1.3198E-01
  1937.984   1.3067E-01
  1945.525   1.2788E-01
  1953.125   1.2500E-01
  1960.784   1.2437E-01
  1968.504   1.2519E-01
  1976.285   1.2714E-01
  1984.127   1.2458E-01
  1992.032   1.2196E-01
  2000.000   1.1923E-01
  2008.032   1.1379E-01
  2016.129   1.1390E-01
  2024.291   1.1245E-01
  2032.520   1.0999E-01
  2040.816   1.0750E-01
  2049.180   1.0506E-01
  2057.613   1.0182E-01
  2066.116   9.9997E-02
  2074.689   1.0064E-01
  2083.333   1.0029E-01
  2092.050   9.8121E-02
  2100.840   9.5383E-02
  2109.705   9.1998E-02
  2118.644   8.8361E-02
  2127.660   8.6244E-02
  2136.752   8.4978E-02
  2145.923   8.2668E-02
  2155.172   8.0876E-02
  2164.502   8.0204E-02
  2173.913   7.8042E-02
  2183.406   7.4886E-02
  2192.982   7.3210E-02
  2202.643   7.3610E-02
  2212.389   7.4883E-02
  2222.222   7.5257E-02
  2232.143   7.4326E-02
  2242.152   7.2769E-02
  2252.252   7.1662E-02
  2262.443   7.0943E-02
  2272.727   6.9869E-02
  2283.105   6.9055E-02
  2293.578   6.8348E-02
  2304.147   6.4645E-02
  2314.815   5.7476E-02
  2325.581   5.3067E-02
  2336.449   5.5146E-02
  2347.418   6.0648E-02
  2358.491   6.4406E-02
  2369.668   6.1974E-02
  2380.952   5.6084E-02
  2392.344   5.3267E-02
  2403.846   5.4406E-02
  2415.459   5.6549E-02
  2427.184   5.5707E-02
  2439.024   5.2153E-02
  2450.980   5.0708E-02
  2463.054   5.2174E-02
  2475.248   5.4076E-02
  2487.562   5.4367E-02
  2500.000   5.1987E-02
  2512.563   4.8335E-02
  2525.253   4.6281E-02
  2538.071   4.5982E-02
  2551.020   4.5520E-02
  2564.103   4.4352E-02
  2577.320   4.3083E-02
  2590.674   4.2135E-02
  2604.167   4.1570E-02
  2617.801   4.0926E-02
  2631.579   3.9857E-02
  2645.503   3.8894E-02
  2659.574   3.8401E-02
  2673.797   3.7890E-02
  2688.172   3.6985E-02
  2702.703   3.6026E-02
  2717.391   3.5395E-02
  2732.240   3.5004E-02
  2747.253   3.4597E-02
  2762.431   3.3975E-02
  2777.778   3.3089E-02
  2793.296   3.2221E-02
  2808.989   3.1667E-02
  2824.859   3.1247E-02
  2840.909   3.0533E-02
  2857.143   2.9565E-02
  2873.563   2.8818E-02
  2890.173   2.8418E-02
  2906.977   2.7980E-02
  2923.977   2.7208E-02
  2941.176   2.6312E-02
  2958.580   2.5650E-02
  2976.190   2.5236E-02
  2994.012   2.4826E-02
  3012.048   2.4335E-02
  3030.303   2.3904E-02
  3048.780   2.3577E-02
  3067.485   2.3190E-02
  3086.420   2.2568E-02
  3105.590   2.1766E-02
  3125.000   2.1024E-02
  3144.654   2.0509E-02
  3164.557   2.0160E-02
  3184.713   1.9837E-02
  3205.128   1.9485E-02
  3225.806   1.9141E-02
  3246.753   1.8906E-02
  3267.974   1.8726E-02
  3289.474   1.8428E-02
  3311.258   1.7964E-02
  3333.333   1.7473E-02
  3355.705   1.7077E-02
  3378.378   1.6771E-02
  3401.361   1.6433E-02
  3424.658   1.6011E-02
  3448.276   1.5530E-02
  3472.222   1.5070E-02
  3496.503   1.4660E-02
  3521.127   1.4320E-02
  3546.099   1.4040E-02
  3571.429   1.3780E-02
  3597.122   1.3530E-02
  3623.188   1.3250E-02
  3649.635   1.2930E-02
  3676.471   1.2600E-02
  3703.704   1.2250E-02
  3731.343   1.1900E-02
  3759.398   1.1550E-02
  3787.879   1.1230E-02
  3816.794   1.0950E-02
  3846.154   1.0700E-02
  3875.969   1.0480E-02
  3906.250   1.0250E-02
  3937.008   1.0010E-02
  3968.254   9.7550E-03
  4000.000   9.5000E-03
  4032.258   9.2490E-03
  4065.041   8.9900E-03
  4098.361   8.7120E-03
  4132.231   8.4070E-03
  4166.667   8.0910E-03
  4201.681   7.7890E-03
  4237.288   7.5170E-03
  4273.504   7.2700E-03
  4310.345   7.0360E-03
  4347.826   6.8080E-03
  4385.965   6.5820E-03
  4424.779   6.3560E-03
  4464.286   6.1270E-03
  4504.505   5.8930E-03
  4545.455   5.6560E-03
  4587.156   5.4210E-03
  4629.630   5.1950E-03
  4672.897   4.9830E-03
  4716.981   4.7910E-03
  4761.905   4.6150E-03
  4807.692   4.4450E-03
  4854.369   4.2730E-03
  4901.961   4.1040E-03
  4950.495   3.9440E-03
  5000.000   3.7900E-03
  5050.505   3.6420E-03
  5102.041   3.4980E-03
  5154.639   3.3570E-03
  5208.333   3.2210E-03
  5263.158   3.0890E-03
  5319.149   2.9600E-03
  5376.344   2.8350E-03
  5434.783   2.7140E-03
  5494.505   2.5970E-03
  5555.556   2.4840E-03
  5617.978   2.3740E-03
  5681.818   2.2680E-03
  5747.126   2.1660E-03
  5813.953   2.0670E-03
  5882.353   1.9710E-03
  5952.381   1.8800E-03
  6024.096   1.7910E-03
  6097.561   1.7060E-03
  6172.840   1.6250E-03
  6250.000   1.5460E-03
  6329.114   1.4710E-03
  6410.256   1.3990E-03
  6493.506   1.3290E-03
  6578.947   1.2630E-03
  6666.667   1.1990E-03
  6756.757   1.1370E-03
  6849.315   1.0780E-03
  6944.444   1.0220E-03
  7042.254   9.6710E-04
  7142.857   9.1470E-04
  7246.377   8.6440E-04
  7352.941   8.1620E-04
  7462.687   7.6990E-04
  7575.758   7.2560E-04
  7692.308   6.8320E-04
  7812.500   6.4260E-04
  7936.508   6.0390E-04
  8064.516   5.6690E-04
  8196.721   5.3160E-04
  8333.333   4.9800E-04
  8474.576   4.6600E-04
  8620.690   4.3550E-04
  8771.930   4.0650E-04
  8928.571   3.7890E-04
  9090.909   3.5270E-04
  9259.259   3.2790E-04
  9433.962   3.0430E-04
  9615.385   2.8200E-04
  9803.922   2.6090E-04
 10000.000   2.4110E-04
 10204.082   2.2240E-04
 10416.667   2.0490E-04
 10638.298   1.8850E-04
 10869.565   1.7310E-04
 11111.111   1.5860E-04
 11363.636   1.4520E-04
 11627.907   1.3260E-04
 11904.762   1.2080E-04
 12195.122   1.0980E-04
 12500.000   9.9540E-05
 12820.513   9.0001E-05
 13157.895   8.1169E-05
 13513.514   7.3017E-05
 13888.889   6.5490E-05
 14285.714   5.8537E-05
 14705.882   5.2126E-05
 15151.515   4.6236E-05
 15625.000   4.0852E-05
 16129.032   3.5963E-05
 16666.668   3.1539E-05
 17241.379   2.7524E-05
 17857.143   2.3888E-05
 18518.520   2.0636E-05
 19230.770   1.7762E-05
 20000.000   1.5213E-05
 20833.332   1.2889E-05
 21739.131   1.0853E-05
 22727.273   9.0684E-06
 23809.523   7.5145E-06
 25000.000   6.1700E-06
 26315.789   5.0229E-06
 27777.777   4.0438E-06
 29411.766   3.2155E-06
 31250.000   2.5213E-06
 33333.332   1.9460E-06
 35714.285   1.4768E-06
 38461.539   1.1006E-06
 41666.668   8.0203E-07
 45454.547   5.6923E-07
 50000.000   3.9100E-07
 55555.555   2.5766E-07
 62500.000   1.6193E-07
 71428.570   9.6003E-08
 83333.336   5.2496E-08
100000.000   2.5700E-08
125000.000   1.0728E-08
166666.672   3.4580E-09
250000.000   7.0100E-10
500000.000   4.5756E-11
