file NECKEL.FLX  extraterrestrial solar irradiance 330-1250nm
from: H.Neckel and D.Labs, "The Solar Radiation Between 3300 and 12500 A",
      Solar Physics v.90, pp.205-258 (1984).
Resolution:  1 nm between 330.5 and 529.5 nm
             2 nm between 631.0 and 709.0 nm
             5 nm between 872.5 and 1247.4 nm
Units: converted from 1.0E-6 Watts cm-2 A-1 to photons cm-2 s-1 nm-1
Values are for the whole disk irradiance, at mean Earth-Sun distance
wavelengths are for the center of the intervals. 
$$$$$$$$$
1.	1.
   330.500   1.67555E+14
   331.500   1.61720E+14
   332.500   1.54341E+14
   333.500   1.52118E+14
   334.500   1.58469E+14
   335.500   1.66036E+14
   336.500   1.29769E+14
   337.500   1.47316E+14
   338.500   1.56274E+14
   339.500   1.60325E+14
   340.500   1.70225E+14
   341.500   1.61097E+14
   342.500   1.71742E+14
   343.500   1.70514E+14
   344.500   1.24876E+14
   345.500   1.68376E+14
   346.500   1.60490E+14
   347.500   1.57979E+14
   348.500   1.66505E+14
   349.500   1.52378E+14
   350.500   1.97811E+14
   351.500   1.75901E+14
   352.500   1.54751E+14
   353.500   1.98793E+14
   354.500   2.02567E+14
   355.500   1.89537E+14
   356.500   1.68532E+14
   357.500   1.60546E+14
   358.500   1.13346E+14
   359.500   2.05967E+14
   360.500   1.77864E+14
   361.500   1.62888E+14
   362.500   2.14804E+14
   363.500   1.75501E+14
   364.500   1.86444E+14
   365.500   2.32774E+14
   366.500   2.30828E+14
   367.500   2.24982E+14
   368.500   2.02219E+14
   369.500   2.47972E+14
   370.500   2.00891E+14
   371.500   2.44825E+14
   372.500   1.99913E+14
   373.500   1.57765E+14
   374.500   1.65729E+14
   375.500   2.16080E+14
   376.500   2.09073E+14
   377.500   2.45738E+14
   378.500   2.55917E+14
   379.500   1.91251E+14
   380.500   2.47308E+14
   381.500   2.10889E+14
   382.500   1.41346E+14
   383.500   1.32255E+14
   384.500   1.98997E+14
   385.500   1.85347E+14
   386.500   2.08594E+14
   387.500   1.88650E+14
   388.500   1.78574E+14
   389.500   2.41000E+14
   390.500   2.40832E+14
   391.500   2.75942E+14
   392.500   1.88910E+14
   393.500   9.70730E+13
   394.500   2.19069E+14
   395.500   2.74779E+14
   396.500   1.29952E+14
   397.500   2.08327E+14
   398.500   3.08963E+14
   399.500   3.33270E+14
   400.500   3.32895E+14
   401.500   3.63642E+14
   402.500   3.65966E+14
   403.500   3.37217E+14
   404.500   3.26648E+14
   405.500   3.41746E+14
   406.500   3.32766E+14
   407.500   3.17377E+14
   408.500   3.75741E+14
   409.500   3.52127E+14
   410.500   3.10827E+14
   411.500   3.77464E+14
   412.500   3.72567E+14
   413.500   3.66392E+14
   414.500   3.63313E+14
   415.500   3.63562E+14
   416.500   3.87293E+14
   417.500   3.50809E+14
   418.500   3.55652E+14
   419.500   3.60092E+14
   420.500   3.73018E+14
   421.500   3.82393E+14
   422.500   3.37355E+14
   423.500   3.65658E+14
   424.500   3.78703E+14
   425.500   3.63957E+14
   426.500   3.65457E+14
   427.500   3.38550E+14
   428.500   3.43225E+14
   429.500   3.19808E+14
   430.500   2.46645E+14
   431.500   3.67134E+14
   432.500   3.59275E+14
   433.500   3.78657E+14
   434.500   3.66187E+14
   435.500   3.78650E+14
   436.500   4.25009E+14
   437.500   3.98891E+14
   438.500   3.46819E+14
   439.500   4.04918E+14
   440.500   3.80780E+14
   441.500   4.30322E+14
   442.500   4.42213E+14
   443.500   4.27359E+14
   444.500   4.42645E+14
   445.500   4.09549E+14
   446.500   4.26204E+14
   447.500   4.69063E+14
   448.500   4.46628E+14
   449.500   4.59844E+14
   450.500   4.87404E+14
   451.500   4.80530E+14
   452.500   4.43322E+14
   453.500   4.50923E+14
   454.500   4.53976E+14
   455.500   4.67588E+14
   456.500   4.78497E+14
   457.500   4.84843E+14
   458.500   4.56125E+14
   459.500   4.65911E+14
   460.500   4.74111E+14
   461.500   4.78626E+14
   462.500   4.91073E+14
   463.500   4.77200E+14
   464.500   4.63263E+14
   465.500   4.79728E+14
   466.500   4.52340E+14
   467.500   4.75434E+14
   468.500   4.71498E+14
   469.500   4.71559E+14
   470.500   4.45797E+14
   471.500   4.80214E+14
   472.500   4.86704E+14
   473.500   4.75815E+14
   474.500   4.91153E+14
   475.500   4.83809E+14
   476.500   4.70433E+14
   477.500   5.00028E+14
   478.500   4.85176E+14
   479.500   5.02364E+14
   480.500   4.93493E+14
   481.500   5.07853E+14
   482.500   4.92632E+14
   483.500   4.92680E+14
   484.500   4.81502E+14
   485.500   4.48521E+14
   486.500   3.98989E+14
   487.500   4.50369E+14
   488.500   4.71951E+14
   489.500   4.84253E+14
   490.500   4.96849E+14
   491.500   4.70395E+14
   492.500   4.71353E+14
   493.500   4.70322E+14
   494.500   5.13598E+14
   495.500   4.81708E+14
   496.500   5.05426E+14
   497.500   5.06695E+14
   498.500   4.69566E+14
   499.500   4.96661E+14
   500.500   4.69182E+14
   501.500   4.58758E+14
   502.500   4.80417E+14
   503.500   4.91513E+14
   504.500   4.75980E+14
   505.500   5.08480E+14
   506.500   5.01326E+14
   507.500   4.88263E+14
   508.500   4.92554E+14
   509.500   4.92753E+14
   510.500   5.01687E+14
   511.500   5.15546E+14
   512.500   4.83011E+14
   513.500   4.82403E+14
   514.500   4.86709E+14
   515.500   4.94403E+14
   516.500   4.35035E+14
   517.500   4.50727E+14
   518.500   4.32804E+14
   519.500   4.79408E+14
   520.500   4.81117E+14
   521.500   5.01733E+14
   522.500   4.80861E+14
   523.500   5.00494E+14
   524.500   5.18350E+14
   525.500   5.11931E+14
   526.500   4.44783E+14
   527.500   4.86791E+14
   528.500   5.06073E+14
   529.500   5.12629E+14
   530.500   5.22677E+14
   531.500   5.26606E+14
   532.500   4.75856E+14
   533.500   5.17844E+14
   534.500   5.01324E+14
   535.500   5.37848E+14
   536.500   5.06711E+14
   537.500   5.10632E+14
   538.500   5.17546E+14
   539.500   4.98951E+14
   540.500   4.82733E+14
   541.500   5.14159E+14
   542.500   4.99814E+14
   543.500   5.15511E+14
   544.500   5.16459E+14
   545.500   5.23450E+14
   546.500   5.18357E+14
   547.500   5.06626E+14
   548.500   5.15835E+14
   549.500   5.25628E+14
   550.500   5.17439E+14
   551.500   5.20878E+14
   552.500   5.14868E+14
   553.500   5.25832E+14
   554.500   5.31249E+14
   555.500   5.31927E+14
   556.500   5.11592E+14
   557.500   5.19528E+14
   558.500   5.03870E+14
   559.500   5.10688E+14
   560.500   5.21477E+14
   561.500   5.17036E+14
   562.500   5.25320E+14
   563.500   5.29375E+14
   564.500   5.28325E+14
   565.500   5.13317E+14
   566.500   5.23066E+14
   567.500   5.40561E+14
   568.500   5.19475E+14
   569.500   5.34724E+14
   570.500   5.09527E+14
   571.500   5.25957E+14
   572.500   5.46765E+14
   573.500   5.43100E+14
   574.500   5.41444E+14
   575.500   5.31666E+14
   576.500   5.37234E+14
   577.500   5.41364E+14
   578.500   5.20749E+14
   579.500   5.34778E+14
   580.500   5.38623E+14
   581.500   5.43942E+14
   582.500   5.50743E+14
   583.500   5.46988E+14
   584.500   5.48809E+14
   585.500   5.27050E+14
   586.500   5.41828E+14
   587.500   5.48076E+14
   588.500   5.19677E+14
   589.500   4.79604E+14
   590.500   5.40470E+14
   591.500   5.33642E+14
   592.500   5.40809E+14
   593.500   5.38136E+14
   594.500   5.32159E+14
   595.500   5.35752E+14
   596.500   5.43559E+14
   597.500   5.36950E+14
   598.500   5.30918E+14
   599.500   5.36936E+14
   600.500   5.29064E+14
   601.500   5.31460E+14
   602.500   5.22637E+14
   603.500   5.44468E+14
   604.500   5.42023E+14
   605.500   5.38957E+14
   606.500   5.38626E+14
   607.500   5.38902E+14
   608.500   5.35194E+14
   609.500   5.36380E+14
   610.500   5.24659E+14
   611.500   5.38756E+14
   612.500   5.26994E+14
   613.500   5.21059E+14
   614.500   5.31190E+14
   615.500   5.32054E+14
   616.500   5.00639E+14
   617.500   5.31918E+14
   618.500   5.38073E+14
   619.500   5.33641E+14
   620.500   5.42936E+14
   621.500   5.30044E+14
   622.500   5.38105E+14
   623.500   5.24216E+14
   624.500   5.21913E+14
   625.500   5.15191E+14
   626.500   5.36516E+14
   627.500   5.37373E+14
   628.500   5.38229E+14
   629.500   5.32747E+14
   631.000   5.21945E+14
   633.000   5.27423E+14
   635.000   5.30688E+14
   637.000   5.31718E+14
   639.000   5.32422E+14
   641.000   5.22148E+14
   643.000   5.26044E+14
   645.000   5.29628E+14
   647.000   5.23453E+14
   649.000   5.10368E+14
   651.000   5.27672E+14
   653.000   5.26992E+14
   655.000   5.06512E+14
   657.000   4.59105E+14
   659.000   5.15246E+14
   661.000   5.24131E+14
   663.000   5.20376E+14
   665.000   5.23620E+14
   667.000   5.16799E+14
   669.000   5.22054E+14
   671.000   5.13480E+14
   673.000   5.16705E+14
   675.000   5.14502E+14
   677.000   5.15345E+14
   679.000   5.13449E+14
   681.000   5.12904E+14
   683.000   5.09940E+14
   685.000   5.03157E+14
   687.000   5.08776E+14
   689.000   5.08176E+14
   691.000   5.05129E+14
   693.000   5.06591E+14
   695.000   5.03854E+14
   697.000   4.98286E+14
   699.000   5.02883E+14
   701.000   4.90558E+14
   703.000   4.92665E+14
   705.000   5.03650E+14
   707.000   4.99740E+14
   709.000   4.95442E+14
   711.000   4.97198E+14
   713.000   4.94289E+14
   715.000   4.93156E+14
   717.000   4.89843E+14
   719.000   4.81797E+14
   721.000   4.84227E+14
   723.000   4.91758E+14
   725.000   4.93848E+14
   727.000   4.93746E+14
   729.000   4.85195E+14
   731.000   4.89102E+14
   733.000   4.87488E+14
   735.000   4.85488E+14
   737.000   4.86067E+14
   739.000   4.76597E+14
   741.000   4.70425E+14
   743.000   4.82169E+14
   745.000   4.80841E+14
   747.000   4.83637E+14
   749.000   4.80029E+14
   751.000   4.78286E+14
   753.000   4.78423E+14
   755.000   4.78173E+14
   757.000   4.76772E+14
   759.000   4.74975E+14
   761.000   4.75077E+14
   763.000   4.77862E+14
   765.000   4.71412E+14
   767.000   4.58743E+14
   769.000   4.66908E+14
   771.000   4.68510E+14
   773.000   4.71282E+14
   775.000   4.64698E+14
   777.000   4.69027E+14
   779.000   4.66704E+14
   781.000   4.67903E+14
   783.000   4.64765E+14
   785.000   4.67533E+14
   787.000   4.67535E+14
   789.000   4.67532E+14
   791.000   4.62345E+14
   793.000   4.57525E+14
   795.000   4.55077E+14
   797.000   4.63445E+14
   799.000   4.57769E+14
   801.000   4.61738E+14
   803.000   4.57635E+14
   805.000   4.53101E+14
   807.000   4.56258E+14
   809.000   4.47207E+14
   811.000   4.56070E+14
   813.000   4.57604E+14
   815.000   4.55447E+14
   817.000   4.55331E+14
   819.000   4.39540E+14
   821.000   4.47640E+14
   823.000   4.45830E+14
   825.000   4.47744E+14
   827.000   4.48830E+14
   829.000   4.48663E+14
   831.000   4.47654E+14
   833.000   4.34053E+14
   835.000   4.43082E+14
   837.000   4.43722E+14
   839.000   4.40559E+14
   841.000   4.42879E+14
   843.000   4.36717E+14
   845.000   4.39881E+14
   847.000   4.37510E+14
   849.000   4.15462E+14
   851.000   4.30151E+14
   853.000   4.18279E+14
   855.000   3.77936E+14
   857.000   4.36635E+14
   859.000   4.31600E+14
   861.000   4.32605E+14
   863.000   4.34479E+14
   865.000   4.22856E+14
   867.000   3.84550E+14
   869.000   4.23499E+14
   872.500   4.38383E+14
   877.500   4.36919E+14
   882.500   4.34966E+14
   887.500   4.32962E+14
   892.500   4.30458E+14
   897.500   4.28352E+14
   902.500   4.26194E+14
   907.500   4.23987E+14
   912.500   4.21729E+14
   917.500   4.19882E+14
   922.500   4.17526E+14
   927.500   4.15120E+14
   932.500   4.13132E+14
   937.500   4.10628E+14
   942.500   4.08547E+14
   947.500   4.06421E+14
   952.500   4.04250E+14
   957.500   4.02034E+14
   962.500   3.99772E+14
   967.500   3.97465E+14
   972.500   3.95112E+14
   977.500   3.92715E+14
   982.500   3.90766E+14
   987.500   3.88281E+14
   992.500   3.86249E+14
   997.500   3.84177E+14
   1002.50   3.81561E+14
   1007.50   3.78899E+14
   1012.50   3.76191E+14
   1017.50   3.73951E+14
   1022.50   3.71156E+14
   1027.50   3.68832E+14
   1032.50   3.66469E+14
   1037.50   3.63542E+14
   1042.50   3.61095E+14
   1047.50   3.58608E+14
   1052.50   3.56081E+14
   1057.50   3.52981E+14
   1062.50   3.50371E+14
   1067.50   3.48795E+14
   1072.50   3.47729E+14
   1077.50   3.46095E+14
   1082.50   3.44431E+14
   1087.50   3.43285E+14
   1092.50   3.41563E+14
   1097.50   3.39811E+14
   1102.50   3.38584E+14
   1107.50   3.37331E+14
   1112.50   3.35494E+14
   1117.50   3.34188E+14
   1122.50   3.32858E+14
   1127.50   3.30935E+14
   1132.50   3.29552E+14
   1137.50   3.28143E+14
   1142.50   3.26710E+14
   1147.50   3.25251E+14
   1152.50   3.23767E+14
   1157.50   3.22258E+14
   1162.50   3.20724E+14
   1167.50   3.19164E+14
   1172.50   3.17580E+14
   1177.50   3.15970E+14
   1182.50   3.14930E+14
   1187.50   3.13870E+14
   1192.50   3.12190E+14
   1197.50   3.11088E+14
   1202.50   3.09965E+14
   1207.50   3.08822E+14
   1212.50   3.07659E+14
   1217.50   3.06476E+14
   1222.50   3.05273E+14
   1227.50   3.04049E+14
   1232.50   3.02806E+14
   1237.50   3.00919E+14
   1242.50   2.99007E+14
   1247.50   2.97070E+14
$$$$$$$
