File; NICOLARV.DAT  Solar extraterrestrial irradiance
 wvl<300 nm from Nicolet, Plan. Sp. Sci., 29,  951-974, 1981.
 wvl>300 nm supplied by Thekaekera
                  Arvesen Applied Optics 8, 11, 2215-2232, 1969
        (also see Thekaekera, Applied Optics, 13,3, 518, 1974)
        but with corrections recommended by:
                 Nicolet, Plan. Sp. Sci., 37, 1249-1289, 1989
wvl(nm) Irradiance(W m-2 nm-1)
 270.0  0.245
 270.5  0.259
 271.0  0.255
 271.5  0.225
 272.0  0.198
 272.5  0.198
 273.0  0.213
 273.5  0.197
 274.0  0.153
 274.5  0.135
 275.0  0.145
 275.5  0.170
 276.0  0.208
 276.5  0.235
 277.0  0.251
 277.5  0.239
 278.0  0.205
 278.5  0.166
 279.0  0.128
 279.5  0.092
 280.0  0.081
 280.5  0.091
 281.0  0.139
 281.5  0.207
 282.0  0.259
 282.5  0.272
 283.0  0.319
 283.5  0.326
 284.0  0.309
 284.5  0.249
 285.0  0.169
 285.5  0.158
 286.0  0.227
 286.5  0.325
 287.0  0.355
 287.5  0.346
 288.0  0.313
 288.5  0.322
 289.0  0.385
 289.5  0.462
 290.0  0.557
 290.5  0.609
 291.0  0.610
 291.5  0.591
 292.0  0.558
 292.5  0.539
 293.0  0.534
 293.5  0.542
 294.0  0.527
 294.5  0.515
 295.0  0.524
 295.5  0.554
 296.0  0.562
 296.5  0.510
 297.0  0.480
 297.5  0.510
 298.0  0.516
 298.5  0.475
 299.0  0.487
 299.6  0.537
 300.0  0.497
 300.4  0.538
 300.8  0.607
 301.2  0.738
 301.6  0.568
 302.0  0.478
 302.4  0.533
 302.8  0.582
 303.2  0.626
 303.6  0.555
 304.0  0.514
 304.4  0.544
 304.8  0.619
 305.2  0.637
 305.6  0.483
 306.0  0.549
 306.4  0.613
 306.8  0.708
 307.2  0.735
 307.6  0.662
 308.0  0.622
 308.4  0.611
 308.8  0.525
 309.2  0.507
 309.6  0.528
 310.0  0.532
 310.4  0.697
 310.8  0.781
 311.2  0.782
 311.6  0.696
 312.0  0.650
 312.5  0.736
 312.9  0.748
 313.3  0.696
 313.7  0.744
 314.1  0.763
 314.5  0.642
 314.9  0.810
 315.3  0.788
 315.7  0.620
 316.1  0.568
 316.5  0.733
 316.9  0.829
 317.3  0.904
 317.7  0.793
 318.1  0.611
 318.5  0.728
 318.9  0.874
 319.3  0.711
 319.7  0.775
 320.1  0.849
 320.5  0.912
 320.9  0.855
 321.3  0.681
 321.7  0.768
 322.1  0.844
 322.5  0.736
 322.9  0.610
 323.3  0.648
 323.7  0.611
 324.1  0.677
 324.5  0.687
 324.9  0.658
 325.3  0.762
 325.7  1.014
 326.1  1.172
 326.5  1.142
 326.9  1.166
 327.3  1.019
 327.7  0.990
 328.1  0.915
 328.5  0.986
 328.9  0.994
 329.3  1.176
 329.7  1.205
 330.1  1.170
 330.5  0.999
 330.9  0.979
 331.3  1.007
 331.7  1.042
 332.1  1.059
 332.5  1.015
 332.9  1.047
 333.3  1.061
 333.7  0.917
 334.1  1.032
 334.5  1.162
 334.9  1.018
 335.3  1.103
 335.7  1.115
 336.1  0.688
 336.5  0.896
 336.9  0.852
 337.4  0.815
 337.8  0.974
 338.2  0.925
 338.6  1.024
 339.0  1.075
 339.4  0.991
 339.8  1.073
 340.0  1.168
 340.2  1.158
 340.4  1.130
 340.6  1.062
 340.8  0.998
 341.0  1.013
 341.2  1.068
 341.4  1.057
 341.6  0.886
 341.8  0.958
 342.0  1.088
 342.2  1.190
 342.4  1.117
 342.6  1.032
 342.8  1.020
 343.0  1.085
 343.2  1.190
 343.4  1.146
 343.6  1.079
 343.8  1.008
 344.0  0.892
 344.2  0.660
 344.4  0.615
 344.6  0.759
 344.8  0.886
 345.0  1.058
 345.2  1.172
 345.4  1.053
 345.6  1.079
 345.8  1.069
 346.0  0.884
 346.2  0.806
 346.4  0.888
 346.6  1.050
 346.8  0.974
 347.0  1.083
 347.2  1.146
 347.4  1.066
 347.6  0.860
 347.8  0.803
 348.0  0.896
 348.2  1.031
 348.4  0.965
 348.6  0.902
 348.8  1.005
 349.0  1.005
 349.2  0.887
 349.4  0.857
 349.6  0.928
 349.8  1.000
 350.0  1.072
 350.2  1.143
 350.4  1.193
 350.6  1.156
 350.8  1.044
 351.0  1.043
 351.2  0.993
 351.4  0.886
 351.6  0.988
 351.8  1.112
 352.0  1.080
 352.2  0.923
 352.4  0.809
 352.6  0.922
 352.8  1.031
 353.0  1.092
 353.2  1.097
 353.4  1.116
 353.6  1.148
 353.8  1.179
 354.0  1.186
 354.2  1.180
 354.4  1.175
 354.6  1.178
 354.8  1.196
 355.0  1.149
 355.2  1.037
 355.4  1.031
 355.6  1.036
 355.8  1.023
 356.0  1.040
 356.2  1.081
 356.4  0.849
 356.6  0.757
 356.8  0.769
 357.0  0.849
 357.2  0.925
 357.4  0.973
 357.6  0.929
 357.8  0.716
 358.0  0.567
 358.2  0.555
 358.4  0.574
 358.6  0.744
 358.8  0.962
 359.0  1.101
 359.2  1.148
 359.4  1.193
 359.6  1.190
 359.8  1.143
 360.0  1.093
 360.2  1.029
 360.4  0.965
 360.6  0.946
 360.8  0.957
 361.0  0.967
 361.2  0.927
 361.4  0.788
 361.6  0.665
 361.8  0.767
 362.0  0.954
 362.2  1.087
 362.5  1.149
 362.7  1.189
 362.9  1.107
 363.1  0.998
 363.3  0.997
 363.5  1.108
 363.7  1.195
 363.9  1.135
 364.1  1.045
 364.3  0.989
 364.5  0.972
 364.7  0.972
 364.9  1.078
 365.1  1.213
 365.3  1.296
 365.5  1.332
 365.7  1.377
 365.9  1.390
 366.1  1.353
 366.3  1.314
 366.5  1.281
 366.7  1.251
 366.9  1.241
 367.1  1.266
 367.3  1.286
 367.5  1.230
 367.7  1.137
 367.9  1.080
 368.1  1.100
 368.3  1.130
 368.5  1.200
 368.7  1.293
 368.9  1.346
 369.1  1.297
 369.3  1.240
 369.5  1.261
 369.7  1.336
 369.9  1.351
 370.1  1.177
 370.3  0.982
 370.5  0.959
 370.7  1.075
 370.9  1.192
 371.1  1.308
 371.3  1.422
 371.5  1.303
 371.7  0.967
 371.9  0.711
 372.1  0.937
 372.3  1.202
 372.5  1.210
 372.7  1.159
 372.9  1.046
 373.1  0.918
 373.3  0.770
 373.5  0.667
 373.7  0.895
 373.9  1.158
 374.1  1.077
 374.3  0.913
 374.5  0.724
 374.7  0.614
 374.9  0.704
 375.1  1.036
 375.3  1.201
 375.5  1.093
 375.7  1.044
 375.9  1.121
 376.1  1.174
 376.3  1.173
 376.5  1.179
 376.7  1.203
 376.9  1.245
 377.1  1.313
 377.3  1.370
 377.5  1.398
 377.7  1.434
 377.9  1.493
 378.1  1.525
 378.3  1.491
 378.5  1.405
 378.7  1.210
 378.9  1.058
 379.1  1.047
 379.3  1.041
 379.5  1.004
 379.7  0.996
 379.9  1.092
 380.0  1.147
 380.1  1.199
 380.2  1.242
 380.3  1.285
 380.4  1.329
 380.5  1.367
 380.6  1.386
 380.7  1.405
 380.8  1.425
 380.9  1.425
 381.0  1.322
 381.1  1.219
 381.2  1.116
 381.3  1.028
 381.4  1.042
 381.5  1.056
 381.6  1.069
 381.7  1.076
 381.8  1.002
 381.9  0.928
 382.0  0.855
 382.1  0.783
 382.2  0.733
 382.3  0.685
 382.4  0.636
 382.5  0.587
 382.6  0.631
 382.7  0.674
 382.8  0.718
 382.9  0.727
 383.0  0.736
 383.1  0.746
 383.2  0.714
 383.3  0.679
 383.4  0.645
 383.5  0.679
 383.6  0.720
 383.7  0.782
 383.8  0.715
 383.9  0.648
 384.0  0.791
 384.1  0.964
 384.2  1.136
 384.3  1.169
 384.4  1.175
 384.5  1.182
 384.6  1.194
 384.7  1.206
 384.8  1.219
 384.9  1.233
 385.0  1.247
 385.1  1.261
 385.2  1.223
 385.3  1.170
 385.4  1.117
 385.5  1.087
 385.6  1.065
 385.7  1.044
 385.8  0.979
 385.9  0.895
 386.0  0.812
 386.1  0.833
 386.2  0.904
 386.3  0.975
 386.4  1.046
 386.5  1.117
 386.6  1.109
 386.7  1.055
 386.8  1.001
 386.9  0.948
 387.0  0.916
 387.1  0.898
 387.2  0.880
 387.3  0.955
 387.5  1.101
 387.6  1.247
 387.7  1.281
 387.8  1.221
 387.9  1.160
 388.0  1.100
 388.1  1.043
 388.2  0.990
 388.3  0.936
 388.4  0.915
 388.5  0.927
 388.6  0.940
 388.7  0.952
 388.8  0.965
 388.9  1.007
 389.0  1.090
 389.1  1.172
 389.2  1.238
 389.3  1.279
 389.4  1.321
 389.5  1.359
 389.6  1.394
 389.7  1.427
 389.8  1.431
 389.9  1.376
 390.0  1.322
 390.1  1.274
 390.2  1.245
 390.3  1.215
 390.4  1.172
 390.5  1.094
 390.6  1.016
 390.7  0.994
 390.8  1.140
 390.9  1.285
 391.0  1.408
 391.1  1.455
 391.2  1.501
 391.3  1.529
 391.4  1.481
 391.5  1.433
 391.6  1.390
 391.7  1.371
 391.8  1.353
 391.9  1.328
 392.0  1.265
 392.1  1.200
 392.2  1.136
 392.3  1.083
 392.4  1.122
 392.5  1.160
 392.6  1.191
 392.7  1.121
 392.8  1.052
 392.9  0.838
 393.0  0.723
 393.1  0.609
 393.2  0.496
 393.3  0.432
 393.4  0.367
 393.5  0.308
 393.6  0.419
 393.7  0.530
 393.8  0.645
 393.9  0.783
 394.0  0.921
 394.1  1.035
 394.2  1.061
 394.3  1.086
 394.4  1.134
 394.5  1.233
 394.6  1.332
 394.7  1.380
 394.8  1.354
 394.9  1.329
 395.0  1.334
 395.1  1.370
 395.2  1.406
 395.3  1.432
 395.4  1.452
 395.5  1.472
 395.6  1.432
 395.7  1.365
 395.8  1.299
 395.9  1.206
 396.0  1.106
 396.1  1.006
 396.2  0.952
 396.3  0.904
 396.4  0.856
 396.5  0.808
 396.6  0.660
 396.7  0.513
 396.8  0.365
 396.9  0.420
 397.0  0.477
 397.1  0.533
 397.2  0.694
 397.3  0.855
 397.4  1.016
 397.5  1.100
 397.6  1.182
 397.7  1.264
 397.8  1.415
 397.9  1.569
 398.0  1.723
 398.1  1.671
 398.2  1.611
 398.3  1.551
 398.4  1.590
 398.5  1.632
 398.6  1.675
 398.7  1.737
 398.8  1.800
 398.9  1.863
 399.0  1.845
 399.1  1.822
 399.2  1.800
 399.3  1.775
 399.4  1.750
 399.5  1.725
 399.6  1.646
 399.7  1.564
 399.8  1.481
 399.9  1.567
 400.0  1.668
 400.1  1.767
 400.2  1.817
 400.3  1.865
 400.4  1.911
 400.5  1.755
 400.6  1.581
 400.7  1.405
 400.8  1.486
 400.9  1.594
 401.0  1.701
 401.1  1.770
 401.2  1.836
 401.3  1.901
 401.4  1.922
 401.5  1.938
 401.6  1.953
 401.7  1.950
 401.8  1.892
 401.9  1.835
 402.0  1.807
 402.1  1.782
 402.2  1.756
 402.3  1.753
 402.4  1.753
 402.5  1.753
 402.6  1.805
 402.7  1.865
 402.8  1.924
 402.9  1.776
 403.0  1.594
 403.1  1.412
 403.2  1.438
 403.3  1.500
 403.4  1.562
 403.5  1.708
 403.6  1.870
 403.7  2.030
 403.8  1.981
 403.9  1.892
 404.0  1.803
 404.1  1.862
 404.2  1.952
 404.3  2.042
 404.4  1.744
 404.5  1.364
 404.6  0.984
 404.7  1.159
 404.8  1.457
 404.9  1.754
 405.0  1.796
 405.1  1.779
 405.2  1.761
 405.3  1.711
 405.4  1.652
 405.5  1.594
 405.6  1.550
 405.7  1.511
 405.8  1.473
 405.9  1.579
 406.0  1.724
 406.1  1.870
 406.2  1.766
 406.3  1.596
 406.4  1.425
 406.5  1.412
 406.6  1.446
 406.7  1.479
 406.8  1.619
 406.9  1.792
 407.0  1.963
 407.1  1.978
 407.2  1.945
 407.3  1.911
 407.4  1.832
 407.5  1.740
 407.6  1.647
 407.7  1.678
 407.8  1.751
 407.9  1.824
 408.0  1.849
 408.1  1.858
 408.2  1.866
 408.3  1.847
 408.4  1.818
 408.5  1.791
 408.6  1.854
 408.7  1.952
 408.8  2.048
 408.9  2.050
 409.0  2.016
 409.1  1.981
 409.2  1.966
 409.3  1.960
 409.4  1.954
 409.5  1.890
 409.6  1.803
 409.7  1.715
 409.8  1.631
 409.9  1.550
 410.0  1.469
 410.1  1.450
 410.2  1.457
 410.3  1.465
 410.4  1.518
 410.5  1.590
 410.6  1.663
 410.7  1.873
 410.8  1.863
 410.9  1.852
 411.0  1.866
 411.1  1.891
 411.2  1.917
 411.3  1.955
 411.4  2.000
 411.5  2.045
 411.6  1.951
 411.7  1.786
 411.8  1.621
 411.9  1.643
 412.0  1.761
 412.1  1.880
 412.2  1.923
 412.3  1.925
 412.4  1.928
 412.5  1.916
 412.6  1.896
 412.7  1.877
 412.8  1.873
 412.9  1.877
 413.0  1.882
 413.1  1.835
 413.2  1.758
 413.3  1.681
 413.4  1.723
 413.5  1.836
 413.6  1.949
 413.7  2.021
 413.8  2.068
 413.9  2.115
 414.0  2.064
 414.1  1.950
 414.2  1.835
 414.3  1.809
 414.4  1.841
 414.5  1.874
 414.6  1.935
 414.7  2.017
 414.8  2.097
 414.9  2.082
 415.0  1.999
 415.1  1.916
 415.2  1.825
 415.3  1.729
 415.4  1.631
 415.5  1.628
 415.6  1.694
 415.7  1.759
 415.8  1.837
 415.9  1.925
 416.0  2.014
 416.1  2.086
 416.2  2.146
 416.3  2.206
 416.4  2.196
 416.5  2.131
 416.6  2.067
 416.7  2.037
 416.8  2.037
 416.9  2.038
 417.0  1.948
 417.1  1.783
 417.2  1.617
 417.3  1.578
 417.4  1.646
 417.5  1.714
 417.6  1.736
 417.7  1.717
 417.8  1.697
 417.9  1.697
 418.0  1.714
 418.1  1.730
 418.2  1.765
 418.3  1.818
 418.4  1.871
 418.5  1.831
 418.6  1.703
 418.7  1.574
 418.8  1.623
 418.9  1.848
 419.0  2.073
 419.1  2.191
 419.2  2.201
 419.3  2.211
 419.4  2.170
 419.5  2.078
 419.6  1.984
 419.7  1.707
 419.8  1.711
 419.9  1.715
 420.0  1.700
 420.1  1.666
 420.2  1.632
 420.3  1.663
 420.4  1.767
 420.5  1.872
 420.6  1.941
 420.7  1.969
 420.8  1.998
 420.9  2.010
 421.0  2.001
 421.1  1.991
 421.2  1.988
 421.3  1.993
 421.4  1.998
 421.5  1.976
 421.6  1.923
 421.7  1.870
 421.8  1.872
 421.9  1.947
 422.0  2.021
 422.1  2.021
 422.2  1.918
 422.3  1.815
 422.4  1.646
 422.5  1.385
 422.6  1.125
 422.7  1.101
 422.8  1.409
 422.9  1.718
 423.0  1.884
 423.1  1.842
 423.2  1.801
 423.3  1.733
 423.4  1.628
 423.5  1.523
 423.6  1.503
 423.7  1.615
 423.8  1.727
 423.9  1.808
 424.0  1.839
 424.1  1.871
 424.2  1.921
 424.3  2.003
 424.4  2.084
 424.5  2.077
 424.6  1.923
 424.7  1.770
 424.8  1.662
 424.9  1.631
 425.0  1.601
 425.1  1.587
 425.2  1.605
 425.3  1.621
 425.4  1.693
 425.5  1.865
 425.6  2.036
 425.7  2.049
 425.8  1.767
 425.9  1.484
 426.0  1.382
 426.1  1.626
 426.2  1.870
 426.3  2.025
 426.4  2.006
 426.5  1.985
 426.6  1.946
 426.7  1.866
 426.8  1.786
 426.9  1.693
 427.0  1.574
 427.1  1.454
 427.2  1.399
 427.3  1.485
 427.4  1.572
 427.5  1.671
 427.6  1.797
 427.7  1.923
 427.8  1.986
 427.9  1.903
 428.0  1.820
 428.1  1.768
 428.2  1.792
 428.3  1.815
 428.4  1.827
 428.5  1.815
 428.6  1.802
 428.7  1.736
 428.8  1.641
 428.9  1.545
 429.0  1.498
 429.1  1.579
 429.2  1.659
 429.3  1.704
 429.4  1.652
 429.5  1.601
 429.6  1.514
 429.7  1.329
 429.8  1.143
 429.9  1.017
 430.0  1.064
 430.1  1.111
 430.2  1.156
 430.3  1.198
 430.4  1.238
 430.5  1.244
 430.6  1.139
 430.7  1.034
 430.8  0.975
 430.9  1.063
 431.0  1.152
 431.1  1.255
 431.2  1.404
 431.3  1.551
 431.4  1.707
 431.5  1.891
 431.6  2.076
 431.7  2.202
 431.8  2.112
 431.9  2.022
 432.0  1.910
 432.1  1.710
 432.2  1.511
 432.3  1.364
 432.4  1.424
 432.5  1.484
 432.6  1.561
 432.7  1.712
 432.8  1.862
 432.9  1.986
 433.0  1.996
 433.1  2.007
 433.2  2.015
 433.3  2.014
 433.4  2.014
 433.5  1.978
 433.6  1.779
 433.7  1.580
 433.8  1.417
 433.9  1.437
 434.0  1.456
 434.1  1.489
 434.2  1.598
 434.3  1.705
 434.4  1.803
 434.5  1.849
 434.6  1.894
 434.7  1.920
 434.8  1.829
 434.9  1.739
 435.0  1.670
 435.1  1.734
 435.2  1.799
 435.3  1.860
 435.4  1.901
 435.5  1.942
 435.6  1.969
 435.7  1.901
 435.8  1.834
 435.9  1.784
 436.0  1.857
 436.1  1.931
 436.2  2.001
 436.3  2.037
 436.4  2.075
 436.5  2.104
 436.6  2.070
 436.7  2.035
 436.8  2.000
 436.9  1.959
 437.0  1.919
 437.1  1.874
 437.2  1.780
 437.3  1.686
 437.4  1.608
 437.5  1.680
 437.6  1.898
 437.7  1.894
 437.8  1.891
 437.9  1.871
 438.0  1.655
 438.1  1.438
 438.2  1.250
 438.3  1.439
 438.4  1.629
 438.5  1.806
 438.6  1.778
 438.7  1.751
 438.8  1.727
 438.9  1.752
 439.0  1.779
 439.1  1.804
 439.2  1.788
 439.3  1.772
 439.4  1.762
 439.5  1.880
 439.6  1.997
 439.7  2.105
 439.8  1.972
 439.9  1.839
 440.0  1.710
 440.1  1.689
 440.2  1.669
 440.3  1.651
 440.4  1.745
 440.5  1.838
 440.6  1.930
 440.7  1.953
 440.8  1.976
 440.9  2.000
 441.0  2.069
 441.1  2.137
 441.2  2.205
 441.3  1.941
 441.4  1.677
 441.5  1.814
 441.6  1.952
 441.7  2.048
 441.8  2.145
 441.9  2.107
 442.0  2.069
 442.1  1.951
 442.2  1.831
 442.3  1.965
 442.4  2.104
 442.5  2.072
 442.6  2.034
 442.7  2.036
 442.8  2.038
 442.9  1.958
 443.0  1.875
 443.1  1.932
 443.2  1.994
 443.3  1.847
 443.4  1.690
 443.5  1.832
 443.6  1.989
 443.7  2.027
 443.8  2.060
 443.9  2.043
 444.0  2.024
 444.1  1.909
 444.2  1.789
 444.3  1.949
 444.4  2.128
 444.5  2.081
 444.6  2.018
 444.7  2.038
 444.8  2.066
 444.9  2.093
 445.0  2.128
 445.1  2.164
 445.2  1.959
 445.3  1.733
 445.4  1.740
 445.5  1.770
 445.6  1.790
 445.7  1.809
 445.8  1.839
 445.9  1.871
 446.0  1.952
 446.1  2.038
 446.2  2.125
 446.3  2.075
 446.4  2.007
 446.5  1.990
 446.6  1.980
 446.7  1.929
 446.8  1.893
 446.9  1.929
 447.0  1.974
 447.1  2.007
 447.2  2.037
 447.3  2.094
 447.4  2.156
 447.5  2.176
 447.6  2.190
 447.7  2.173
 447.8  2.152
 447.9  2.005
 448.0  1.836
 448.1  1.885
 448.2  1.972
 448.3  2.062
 448.4  2.153
 448.5  2.206
 448.6  2.252
 448.7  2.111
 448.8  1.934
 448.9  1.987
 449.0  2.085
 449.1  2.108
 449.2  2.116
 449.3  2.039
 449.4  1.946
 449.5  1.962
 449.6  2.003
 449.7  2.038
 449.8  2.073
 449.9  2.041
 450.0  1.994
 450.1  2.044
 450.2  2.118
 450.3  2.212
 450.4  2.311
 450.5  2.296
 450.6  2.253
 450.7  2.219
 450.8  2.187
 450.9  2.221
 451.0  2.272
 451.1  2.222
 451.2  2.143
 451.3  2.101
 451.4  2.072
 451.5  2.093
 451.6  2.132
 451.7  2.138
 451.8  2.134
 451.9  2.163
 452.0  2.205
 452.1  2.128
 452.2  2.015
 452.3  2.007
 452.4  2.034
 452.5  1.946
 452.6  1.818
 452.7  1.786
 452.8  1.785
 452.9  1.795
 453.0  1.809
 453.1  1.908
 453.2  2.038
 453.3  1.973
 453.4  1.836
 453.5  1.938
 453.6  2.127
 453.7  2.146
 453.8  2.099
 453.9  2.055
 454.0  2.013
 454.1  2.064
 454.2  2.154
 454.3  2.145
 454.4  2.096
 454.5  2.070
 454.6  2.051
 454.7  1.995
 454.8  1.923
 454.9  1.959
 455.0  2.045
 455.1  2.069
 455.2  2.065
 455.3  2.011
 455.4  1.933
 455.5  1.956
 455.6  2.026
 455.7  2.152
 455.8  2.130
 455.9  2.110
 456.0  2.090
 456.1  2.118
 456.2  2.168
 456.3  2.124
 456.4  2.031
 456.5  2.039
 456.6  2.097
 456.7  2.138
 456.8  2.169
 456.9  2.138
 457.0  2.073
 457.1  2.082
 457.2  2.132
 457.3  2.164
 457.4  2.188
 457.5  2.200
 457.6  2.206
 457.7  2.168
 457.8  2.106
 457.9  2.042
 458.0  1.976
 458.1  2.016
 458.2  2.118
 458.3  2.108
 458.4  2.029
 458.5  2.027
 458.6  2.075
 458.7  2.131
 458.8  2.192
 458.9  2.191
 459.0  2.151
 459.1  2.107
 459.2  2.061
 459.3  2.053
 459.4  2.069
 459.5  2.044
 459.6  1.990
 459.7  2.009
 459.8  2.079
 459.9  2.037
 460.0  1.918
 460.1  1.908
 460.2  1.979
 460.3  2.049
 460.4  2.056
 460.5  2.017
 460.6  2.054
 460.7  2.151
 460.8  2.247
 460.9  2.216
 461.0  2.084
 461.1  2.047
 461.2  2.087
 461.3  2.126
 461.4  2.165
 461.5  2.144
 461.6  2.071
 461.7  2.026
 461.8  2.005
 461.9  2.048
 462.0  2.148
 462.1  2.158
 462.2  2.091
 462.3  2.089
 462.4  2.144
 462.5  2.168
 462.6  2.168
 462.7  2.138
 462.8  2.080
 462.9  2.096
 463.0  2.182
 463.1  2.160
 463.2  2.039
 463.3  2.019
 463.4  2.093
 463.5  2.120
 463.6  2.100
 463.7  2.089
 463.8  2.087
 463.9  2.102
 464.0  2.138
 464.1  2.126
 464.2  2.064
 464.3  2.049
 464.4  2.085
 464.5  2.056
 464.6  1.868
 464.7  1.884
 464.8  1.926
 464.9  1.998
 465.0  2.040
 465.1  2.050
 465.2  2.032
 465.3  1.984
 465.4  1.970
 465.5  1.997
 465.6  2.056
 465.7  2.154
 465.8  2.199
 465.9  2.182
 466.0  2.139
 466.1  2.062
 466.2  2.042
 466.3  2.090
 466.4  2.064
 466.5  1.942
 466.6  1.840
 466.7  1.763
 466.8  1.803
 466.9  1.992
 467.0  2.089
 467.1  2.062
 467.2  2.054
 467.3  2.075
 467.4  2.095
 467.5  2.118
 467.6  2.100
 467.7  2.023
 467.8  1.958
 467.9  1.908
 468.0  1.884
 468.1  1.901
 468.2  1.948
 468.3  2.040
 468.4  2.093
 468.5  2.086
 468.6  2.086
 468.7  2.097
 468.8  2.094
 468.9  2.067
 469.0  2.056
 469.1  2.072
 469.2  2.061
 469.3  2.004
 469.4  2.021
 469.5  2.158
 469.6  2.187
 469.7  2.031
 469.8  1.943
 469.9  1.970
 470.0  1.973
