     SUSIM SL2 high resolution (0.15nm) Solar Irridance data.
     Irradiance values are given in milliwatts/m^2/nanomenters
     and are listed at 0.05nm intervals.  The wavelength given is
     the center wavelength of the 0.15nm triangular bandpass.
 
  wave     w+0.00      w+0.05      w+0.10      w+0.15      w+0.20      w+0.25      w+0.30      w+0.35      w+0.40      w+0.45
 
 120.50  0.6525E-01  0.2662E+00  0.5396E+00  0.5506E+00  0.3325E+00  0.5456E-01  0.5860E-01  0.6201E-01  0.5934E-01  0.6588E-01
 121.00  0.6787E-01  0.8138E-01  0.8514E-01  0.1009E+00  0.1272E+00  0.1409E+00  0.1875E+00  0.3042E+00  0.5199E+00  0.1469E+01
 121.50  0.6272E+01  0.1400E+02  0.2645E+02  0.2873E+02  0.1863E+02  0.6863E+01  0.1381E+01  0.4207E+00  0.3229E+00  0.2668E+00
 122.00  0.1765E+00  0.1098E+00  0.8889E-01  0.8038E-01  0.6954E-01  0.5756E-01  0.4989E-01  0.4755E-01  0.4633E-01  0.3926E-01
 122.50  0.3735E-01  0.3612E-01  0.3001E-01  0.3038E-01  0.2856E-01  0.2802E-01  0.2865E-01  0.2814E-01  0.2651E-01  0.2626E-01
 123.00  0.2577E-01  0.2378E-01  0.2152E-01  0.2070E-01  0.2084E-01  0.2112E-01  0.2122E-01  0.1988E-01  0.2006E-01  0.1868E-01
 123.50  0.1921E-01  0.1972E-01  0.2055E-01  0.2020E-01  0.1961E-01  0.1664E-01  0.3151E-01  0.5076E-01  0.6939E-01  0.4579E-01
 124.00  0.2100E-01  0.1886E-01  0.1938E-01  0.2038E-01  0.3138E-01  0.4421E-01  0.4507E-01  0.2842E-01  0.1492E-01  0.1453E-01
 124.50  0.1477E-01  0.1654E-01  0.1496E-01  0.1512E-01  0.1931E-01  0.1759E-01  0.1478E-01  0.1514E-01  0.1533E-01  0.1526E-01
 125.00  0.1865E-01  0.2031E-01  0.1695E-01  0.1254E-01  0.1234E-01  0.1606E-01  0.2126E-01  0.2602E-01  0.2098E-01  0.1556E-01
 125.50  0.1403E-01  0.1755E-01  0.2363E-01  0.2201E-01  0.1753E-01  0.1818E-01  0.2366E-01  0.3283E-01  0.3711E-01  0.4311E-01
 126.00  0.5027E-01  0.4084E-01  0.2634E-01  0.1812E-01  0.1471E-01  0.9788E-02  0.1084E-01  0.3914E-01  0.8849E-01  0.1015E+00
 126.50  0.4607E-01  0.2981E-01  0.2373E-01  0.2186E-01  0.1755E-01  0.1231E-01  0.1225E-01  0.1165E-01  0.1072E-01  0.1255E-01
 127.00  0.1221E-01  0.1257E-01  0.1345E-01  0.1050E-01  0.1163E-01  0.1095E-01  0.1139E-01  0.1562E-01  0.1928E-01  0.2403E-01
 127.50  0.2547E-01  0.2053E-01  0.2124E-01  0.2473E-01  0.2479E-01  0.1914E-01  0.1561E-01  0.1617E-01  0.1914E-01  0.2501E-01
 128.00  0.2105E-01  0.1789E-01  0.1548E-01  0.1397E-01  0.1888E-01  0.1915E-01  0.1883E-01  0.2021E-01  0.1900E-01  0.1753E-01
 128.50  0.1462E-01  0.1410E-01  0.1486E-01  0.1229E-01  0.1376E-01  0.2190E-01  0.3000E-01  0.2177E-01  0.2008E-01  0.1981E-01
 129.00  0.1648E-01  0.1494E-01  0.1392E-01  0.1306E-01  0.1302E-01  0.1233E-01  0.1151E-01  0.1445E-01  0.1617E-01  0.1631E-01
 129.50  0.2081E-01  0.2509E-01  0.2367E-01  0.1748E-01  0.1444E-01  0.1478E-01  0.1952E-01  0.2902E-01  0.2574E-01  0.2263E-01
 130.00  0.2445E-01  0.3403E-01  0.9062E-01  0.1774E+00  0.2312E+00  0.1893E+00  0.8462E-01  0.3443E-01  0.1105E+00  0.2424E+00
 130.50  0.2968E+00  0.3120E+00  0.2960E+00  0.1898E+00  0.6908E-01  0.1702E-01  0.1476E-01  0.3080E-01  0.5714E-01  0.7034E-01
 131.00  0.4775E-01  0.2319E-01  0.2641E-01  0.3111E-01  0.2686E-01  0.2085E-01  0.2240E-01  0.2512E-01  0.1888E-01  0.1369E-01
 131.50  0.1459E-01  0.1775E-01  0.2639E-01  0.3201E-01  0.3118E-01  0.2551E-01  0.2162E-01  0.2280E-01  0.2998E-01  0.2733E-01
 132.00  0.1349E-01  0.1325E-01  0.1163E-01  0.1107E-01  0.1132E-01  0.1346E-01  0.1299E-01  0.1736E-01  0.2097E-01  0.1822E-01
 132.50  0.1716E-01  0.1118E-01  0.1105E-01  0.1455E-01  0.1795E-01  0.1827E-01  0.1440E-01  0.1587E-01  0.2382E-01  0.3352E-01
 133.00  0.2879E-01  0.1945E-01  0.1503E-01  0.1534E-01  0.1475E-01  0.1599E-01  0.1237E-01  0.1136E-01  0.6356E-01  0.2897E+00
 133.50  0.5284E+00  0.5910E+00  0.6725E+00  0.4339E+00  0.9271E-01  0.3915E-01  0.1607E-01  0.1720E-01  0.1534E-01  0.1237E-01
 134.00  0.1478E-01  0.1589E-01  0.1583E-01  0.1665E-01  0.1980E-01  0.2100E-01  0.1761E-01  0.1828E-01  0.2007E-01  0.1679E-01
 134.50  0.1470E-01  0.1749E-01  0.1789E-01  0.1846E-01  0.2181E-01  0.1990E-01  0.1958E-01  0.1739E-01  0.1937E-01  0.2132E-01
 135.00  0.1939E-01  0.1855E-01  0.3103E-01  0.5343E-01  0.5397E-01  0.3402E-01  0.2322E-01  0.2148E-01  0.2398E-01  0.3002E-01
 135.50  0.5305E-01  0.8904E-01  0.8065E-01  0.4746E-01  0.3437E-01  0.3091E-01  0.4061E-01  0.5062E-01  0.4852E-01  0.4130E-01
 136.00  0.2762E-01  0.2379E-01  0.2958E-01  0.3144E-01  0.2788E-01  0.2173E-01  0.2212E-01  0.2968E-01  0.3500E-01  0.3352E-01
 136.50  0.2461E-01  0.2137E-01  0.2201E-01  0.2200E-01  0.2469E-01  0.2523E-01  0.2710E-01  0.2611E-01  0.2707E-01  0.2811E-01
 137.00  0.2769E-01  0.3155E-01  0.3084E-01  0.3007E-01  0.3166E-01  0.2961E-01  0.2698E-01  0.2663E-01  0.2842E-01  0.2880E-01
 137.50  0.2577E-01  0.2518E-01  0.2551E-01  0.2764E-01  0.2751E-01  0.2540E-01  0.2707E-01  0.2631E-01  0.2791E-01  0.3022E-01
 138.00  0.2816E-01  0.2760E-01  0.3082E-01  0.3316E-01  0.2903E-01  0.2685E-01  0.2794E-01  0.2532E-01  0.2608E-01  0.3049E-01
 138.50  0.2658E-01  0.2732E-01  0.2561E-01  0.2894E-01  0.3353E-01  0.2849E-01  0.2801E-01  0.2895E-01  0.2640E-01  0.2777E-01
 139.00  0.2919E-01  0.2700E-01  0.2631E-01  0.2870E-01  0.3879E-01  0.7091E-01  0.1449E+00  0.2934E+00  0.2967E+00  0.9113E-01
 139.50  0.4227E-01  0.3434E-01  0.3272E-01  0.3456E-01  0.3210E-01  0.3025E-01  0.3266E-01  0.3620E-01  0.3877E-01  0.3953E-01
 140.00  0.4595E-01  0.6574E-01  0.6243E-01  0.7330E-01  0.1252E+00  0.1783E+00  0.1213E+00  0.5062E-01  0.4826E-01  0.4723E-01
 140.50  0.4512E-01  0.4325E-01  0.4120E-01  0.3491E-01  0.3862E-01  0.4219E-01  0.3752E-01  0.3801E-01  0.3576E-01  0.3334E-01
 141.00  0.3763E-01  0.3993E-01  0.4072E-01  0.4044E-01  0.4178E-01  0.4262E-01  0.4033E-01  0.3888E-01  0.3604E-01  0.3475E-01
 141.50  0.3812E-01  0.4050E-01  0.4254E-01  0.4256E-01  0.3853E-01  0.3535E-01  0.3447E-01  0.3752E-01  0.4052E-01  0.3776E-01
 142.00  0.3507E-01  0.3588E-01  0.3890E-01  0.3917E-01  0.3823E-01  0.3813E-01  0.4022E-01  0.4424E-01  0.6461E-01  0.7802E-01
 142.50  0.6645E-01  0.5313E-01  0.4047E-01  0.4078E-01  0.4182E-01  0.4167E-01  0.4066E-01  0.3998E-01  0.4041E-01  0.4000E-01
 143.00  0.4118E-01  0.4309E-01  0.4869E-01  0.6081E-01  0.6687E-01  0.6283E-01  0.6106E-01  0.5276E-01  0.4347E-01  0.4997E-01
 143.50  0.5148E-01  0.4691E-01  0.5192E-01  0.5378E-01  0.5141E-01  0.4960E-01  0.4481E-01  0.4254E-01  0.4232E-01  0.4276E-01
 144.00  0.4821E-01  0.5080E-01  0.4835E-01  0.4845E-01  0.5251E-01  0.5307E-01  0.4949E-01  0.5244E-01  0.5429E-01  0.5302E-01
 144.50  0.5303E-01  0.5110E-01  0.5599E-01  0.5393E-01  0.5057E-01  0.5013E-01  0.5094E-01  0.4768E-01  0.4971E-01  0.5072E-01
 145.00  0.4695E-01  0.4598E-01  0.4685E-01  0.4622E-01  0.4953E-01  0.5204E-01  0.5209E-01  0.5407E-01  0.5689E-01  0.5587E-01
 145.50  0.5751E-01  0.5748E-01  0.5295E-01  0.4759E-01  0.5185E-01  0.5410E-01  0.5584E-01  0.5889E-01  0.5693E-01  0.5355E-01
 146.00  0.5541E-01  0.5950E-01  0.5565E-01  0.5174E-01  0.5672E-01  0.6284E-01  0.6859E-01  0.6612E-01  0.5806E-01  0.5729E-01
 146.50  0.5822E-01  0.5940E-01  0.6289E-01  0.7520E-01  0.8892E-01  0.9071E-01  0.8056E-01  0.6741E-01  0.6243E-01  0.6809E-01
 147.00  0.7086E-01  0.6596E-01  0.6634E-01  0.7142E-01  0.9957E-01  0.1382E+00  0.1422E+00  0.1414E+00  0.1141E+00  0.9059E-01
 147.50  0.6669E-01  0.6287E-01  0.6457E-01  0.6491E-01  0.6415E-01  0.6301E-01  0.6312E-01  0.5980E-01  0.5974E-01  0.5944E-01
 148.00  0.6259E-01  0.8395E-01  0.1109E+00  0.1235E+00  0.1030E+00  0.9986E-01  0.9631E-01  0.7233E-01  0.7046E-01  0.7452E-01
 148.50  0.7807E-01  0.9309E-01  0.9472E-01  0.8904E-01  0.8616E-01  0.7531E-01  0.6988E-01  0.7000E-01  0.7012E-01  0.6890E-01
 149.00  0.7054E-01  0.7273E-01  0.7591E-01  0.7103E-01  0.8591E-01  0.8651E-01  0.7515E-01  0.7627E-01  0.7531E-01  0.7568E-01
 149.50  0.7408E-01  0.7428E-01  0.7596E-01  0.7428E-01  0.7395E-01  0.7905E-01  0.8245E-01  0.7662E-01  0.7932E-01  0.8283E-01
 150.00  0.8404E-01  0.8406E-01  0.8030E-01  0.8875E-01  0.8763E-01  0.8456E-01  0.8382E-01  0.8541E-01  0.8794E-01  0.8510E-01
 150.50  0.8572E-01  0.8681E-01  0.8622E-01  0.8505E-01  0.8472E-01  0.8301E-01  0.8501E-01  0.8714E-01  0.8786E-01  0.9348E-01
 151.00  0.8528E-01  0.1100E+00  0.1098E+00  0.1054E+00  0.9757E-01  0.8746E-01  0.9173E-01  0.9614E-01  0.8344E-01  0.8795E-01
 151.50  0.9245E-01  0.9174E-01  0.9108E-01  0.8811E-01  0.8758E-01  0.9153E-01  0.9323E-01  0.9232E-01  0.9658E-01  0.9831E-01
 152.00  0.8579E-01  0.9206E-01  0.9464E-01  0.9631E-01  0.9530E-01  0.9868E-01  0.1033E+00  0.1054E+00  0.1016E+00  0.9994E-01
 152.50  0.9918E-01  0.1032E+00  0.1458E+00  0.2007E+00  0.2054E+00  0.1649E+00  0.1056E+00  0.1110E+00  0.1103E+00  0.1049E+00
 153.00  0.9826E-01  0.1031E+00  0.1088E+00  0.1126E+00  0.1091E+00  0.1443E+00  0.1950E+00  0.2183E+00  0.1894E+00  0.1350E+00
 153.50  0.1146E+00  0.1062E+00  0.1056E+00  0.1160E+00  0.1461E+00  0.1415E+00  0.1238E+00  0.1041E+00  0.9938E-01  0.1006E+00
 154.00  0.1111E+00  0.1300E+00  0.1462E+00  0.1408E+00  0.1348E+00  0.1115E+00  0.9608E-01  0.9929E-01  0.1040E+00  0.1153E+00
 154.50  0.1247E+00  0.1193E+00  0.1184E+00  0.9577E-01  0.1766E+00  0.4678E+00  0.6565E+00  0.6417E+00  0.3351E+00  0.1256E+00
 155.00  0.2067E+00  0.3868E+00  0.4074E+00  0.2281E+00  0.1591E+00  0.1361E+00  0.1059E+00  0.1035E+00  0.9743E-01  0.1057E+00
 155.50  0.1231E+00  0.1194E+00  0.1130E+00  0.1200E+00  0.1161E+00  0.1232E+00  0.1641E+00  0.2015E+00  0.2270E+00  0.2461E+00
 156.00  0.2910E+00  0.3284E+00  0.3568E+00  0.2963E+00  0.1710E+00  0.1209E+00  0.1400E+00  0.1671E+00  0.1582E+00  0.1281E+00
 156.50  0.1218E+00  0.1165E+00  0.1299E+00  0.1456E+00  0.1573E+00  0.1550E+00  0.1513E+00  0.1374E+00  0.1439E+00  0.1838E+00
 157.00  0.1975E+00  0.1715E+00  0.1609E+00  0.1494E+00  0.1366E+00  0.1444E+00  0.1583E+00  0.1868E+00  0.2309E+00  0.2407E+00
 157.50  0.2184E+00  0.1762E+00  0.1437E+00  0.1495E+00  0.1518E+00  0.1431E+00  0.1335E+00  0.1310E+00  0.1202E+00  0.1264E+00
 158.00  0.1635E+00  0.1872E+00  0.1713E+00  0.1404E+00  0.1241E+00  0.1351E+00  0.1460E+00  0.1499E+00  0.1677E+00  0.1835E+00
 158.50  0.1769E+00  0.1623E+00  0.1551E+00  0.1502E+00  0.1546E+00  0.1842E+00  0.2099E+00  0.1886E+00  0.1619E+00  0.1642E+00
 159.00  0.1681E+00  0.1650E+00  0.1615E+00  0.1665E+00  0.1702E+00  0.1675E+00  0.1657E+00  0.1714E+00  0.1843E+00  0.1956E+00
 159.50  0.1908E+00  0.1738E+00  0.1529E+00  0.1384E+00  0.1452E+00  0.1572E+00  0.1576E+00  0.1496E+00  0.1447E+00  0.1596E+00
 160.00  0.1770E+00  0.1743E+00  0.1714E+00  0.1911E+00  0.2208E+00  0.2199E+00  0.1971E+00  0.1709E+00  0.1628E+00  0.1664E+00
 160.50  0.1734E+00  0.1819E+00  0.1792E+00  0.1743E+00  0.1762E+00  0.2029E+00  0.2240E+00  0.2100E+00  0.1932E+00  0.1867E+00
 161.00  0.2125E+00  0.2562E+00  0.2474E+00  0.2218E+00  0.2417E+00  0.2763E+00  0.2908E+00  0.2700E+00  0.2375E+00  0.2121E+00
 161.50  0.2032E+00  0.1950E+00  0.1949E+00  0.2041E+00  0.2101E+00  0.2142E+00  0.2293E+00  0.2267E+00  0.2048E+00  0.2119E+00
 162.00  0.2137E+00  0.2166E+00  0.2516E+00  0.2698E+00  0.2634E+00  0.2699E+00  0.2670E+00  0.2462E+00  0.2296E+00  0.2404E+00
 162.50  0.2999E+00  0.3263E+00  0.2816E+00  0.2469E+00  0.2544E+00  0.2479E+00  0.2420E+00  0.2707E+00  0.2861E+00  0.2738E+00
 163.00  0.2541E+00  0.2283E+00  0.2272E+00  0.2611E+00  0.2812E+00  0.2961E+00  0.3076E+00  0.3116E+00  0.3064E+00  0.2644E+00
 163.50  0.2318E+00  0.2375E+00  0.2627E+00  0.2954E+00  0.3174E+00  0.3064E+00  0.2614E+00  0.2553E+00  0.3234E+00  0.4168E+00
 164.00  0.4697E+00  0.4097E+00  0.3063E+00  0.2711E+00  0.2740E+00  0.3024E+00  0.3398E+00  0.3477E+00  0.3245E+00  0.2990E+00
 164.50  0.2941E+00  0.2788E+00  0.2788E+00  0.2788E+00  0.2742E+00  0.2845E+00  0.2840E+00  0.2896E+00  0.3080E+00  0.3035E+00
 165.00  0.2790E+00  0.2710E+00  0.2676E+00  0.2694E+00  0.2785E+00  0.2727E+00  0.2798E+00  0.3125E+00  0.3523E+00  0.3390E+00
 165.50  0.3658E+00  0.4814E+00  0.7587E+00  0.9372E+00  0.1042E+01  0.1032E+01  0.8773E+00  0.6644E+00  0.5012E+00  0.4159E+00
 166.00  0.3792E+00  0.3311E+00  0.3402E+00  0.3410E+00  0.3413E+00  0.3826E+00  0.3832E+00  0.3730E+00  0.3380E+00  0.3232E+00
 166.50  0.3406E+00  0.3709E+00  0.3971E+00  0.3717E+00  0.3475E+00  0.3385E+00  0.3335E+00  0.3288E+00  0.3570E+00  0.3813E+00
 167.00  0.4438E+00  0.5991E+00  0.5330E+00  0.3716E+00  0.3159E+00  0.3220E+00  0.3457E+00  0.4062E+00  0.4433E+00  0.4368E+00
 167.50  0.3886E+00  0.3545E+00  0.3842E+00  0.4072E+00  0.4134E+00  0.4070E+00  0.3807E+00  0.3800E+00  0.3977E+00  0.4109E+00
 168.00  0.4049E+00  0.4146E+00  0.4427E+00  0.4398E+00  0.4093E+00  0.4033E+00  0.4183E+00  0.4193E+00  0.4187E+00  0.4211E+00
 168.50  0.4326E+00  0.4695E+00  0.5398E+00  0.5902E+00  0.5437E+00  0.4858E+00  0.4952E+00  0.5187E+00  0.5073E+00  0.5029E+00
 169.00  0.5147E+00  0.5271E+00  0.5897E+00  0.6094E+00  0.5730E+00  0.5633E+00  0.5669E+00  0.5723E+00  0.5957E+00  0.6360E+00
 169.50  0.6464E+00  0.6178E+00  0.5964E+00  0.6616E+00  0.7383E+00  0.7260E+00  0.6429E+00  0.6291E+00  0.6683E+00  0.6818E+00
 170.00  0.6574E+00  0.6479E+00  0.6859E+00  0.7953E+00  0.8769E+00  0.8611E+00  0.7538E+00  0.6823E+00  0.7078E+00  0.7135E+00
 170.50  0.6779E+00  0.6572E+00  0.6760E+00  0.6815E+00  0.6712E+00  0.6663E+00  0.6960E+00  0.7535E+00  0.7777E+00  0.7774E+00
 171.00  0.7856E+00  0.7606E+00  0.7388E+00  0.7333E+00  0.6500E+00  0.6655E+00  0.7213E+00  0.7198E+00  0.6573E+00  0.6142E+00
 171.50  0.6315E+00  0.6659E+00  0.7177E+00  0.7702E+00  0.8016E+00  0.8240E+00  0.8204E+00  0.7694E+00  0.7518E+00  0.7381E+00
 172.00  0.7534E+00  0.8217E+00  0.8665E+00  0.8323E+00  0.7579E+00  0.7254E+00  0.7267E+00  0.7209E+00  0.7035E+00  0.7810E+00
 172.50  0.8567E+00  0.8750E+00  0.8148E+00  0.8074E+00  0.8255E+00  0.8252E+00  0.8229E+00  0.8083E+00  0.7613E+00  0.6811E+00
 173.00  0.6619E+00  0.6772E+00  0.6900E+00  0.7333E+00  0.7512E+00  0.7401E+00  0.7637E+00  0.7732E+00  0.7770E+00  0.8001E+00
 173.50  0.7910E+00  0.7880E+00  0.8165E+00  0.8233E+00  0.8115E+00  0.8138E+00  0.8226E+00  0.8344E+00  0.8623E+00  0.8655E+00
 174.00  0.8682E+00  0.8687E+00  0.8779E+00  0.9340E+00  0.9895E+00  0.9841E+00  0.9885E+00  0.9906E+00  0.9905E+00  0.9572E+00
 174.50  0.1031E+01  0.1023E+01  0.1015E+01  0.1043E+01  0.9634E+00  0.8697E+00  0.8767E+00  0.9202E+00  0.9493E+00  0.9523E+00
 175.00  0.9575E+00  0.1035E+01  0.1076E+01  0.1109E+01  0.1121E+01  0.1102E+01  0.1080E+01  0.1113E+01  0.1153E+01  0.1195E+01
 175.50  0.1242E+01  0.1229E+01  0.1202E+01  0.1183E+01  0.1176E+01  0.1218E+01  0.1218E+01  0.1213E+01  0.1282E+01  0.1253E+01
 176.00  0.1229E+01  0.1240E+01  0.1253E+01  0.1318E+01  0.1342E+01  0.1280E+01  0.1141E+01  0.1126E+01  0.1153E+01  0.1211E+01
 176.50  0.1157E+01  0.1085E+01  0.1043E+01  0.1158E+01  0.1409E+01  0.1544E+01  0.1492E+01  0.1372E+01  0.1302E+01  0.1326E+01
 177.00  0.1351E+01  0.1449E+01  0.1533E+01  0.1626E+01  0.1613E+01  0.1696E+01  0.1822E+01  0.1788E+01  0.1716E+01  0.1557E+01
 177.50  0.1341E+01  0.1217E+01  0.1228E+01  0.1306E+01  0.1365E+01  0.1371E+01  0.1399E+01  0.1470E+01  0.1620E+01  0.1677E+01
 178.00  0.1637E+01  0.1707E+01  0.1731E+01  0.1651E+01  0.1510E+01  0.1479E+01  0.1555E+01  0.1631E+01  0.1646E+01  0.1646E+01
 178.50  0.1630E+01  0.1645E+01  0.1712E+01  0.1687E+01  0.1640E+01  0.1645E+01  0.1653E+01  0.1669E+01  0.1743E+01  0.1848E+01
 179.00  0.1810E+01  0.1822E+01  0.1868E+01  0.1857E+01  0.1796E+01  0.1613E+01  0.1532E+01  0.1460E+01  0.1435E+01  0.1473E+01
 179.50  0.1523E+01  0.1603E+01  0.1653E+01  0.1602E+01  0.1599E+01  0.1651E+01  0.1686E+01  0.1696E+01  0.1708E+01  0.1720E+01
 180.00  0.1738E+01  0.1771E+01  0.1824E+01  0.1863E+01  0.1873E+01  0.1887E+01  0.1850E+01  0.1880E+01  0.1854E+01  0.1856E+01
 180.50  0.1920E+01  0.1974E+01  0.1976E+01  0.1922E+01  0.1774E+01  0.1880E+01  0.2577E+01  0.2967E+01  0.2749E+01  0.2253E+01
 181.00  0.1867E+01  0.1902E+01  0.2020E+01  0.1982E+01  0.1926E+01  0.1898E+01  0.1931E+01  0.1893E+01  0.1818E+01  0.1731E+01
 181.50  0.1785E+01  0.1877E+01  0.1822E+01  0.2386E+01  0.3597E+01  0.4543E+01  0.4393E+01  0.3024E+01  0.2392E+01  0.2227E+01
 182.00  0.2245E+01  0.2074E+01  0.1995E+01  0.2130E+01  0.2269E+01  0.2268E+01  0.2301E+01  0.2471E+01  0.2582E+01  0.2676E+01
 182.50  0.2602E+01  0.2498E+01  0.2372E+01  0.2254E+01  0.2237E+01  0.2248E+01  0.2179E+01  0.2141E+01  0.2204E+01  0.2299E+01
 183.00  0.2326E+01  0.2250E+01  0.2215E+01  0.2248E+01  0.2336E+01  0.2410E+01  0.2459E+01  0.2400E+01  0.2397E+01  0.2505E+01
 183.50  0.2629E+01  0.2651E+01  0.2593E+01  0.2446E+01  0.2358E+01  0.2456E+01  0.2521E+01  0.2509E+01  0.2566E+01  0.2741E+01
 184.00  0.2666E+01  0.2380E+01  0.2262E+01  0.1996E+01  0.1945E+01  0.2135E+01  0.2303E+01  0.2360E+01  0.2308E+01  0.2297E+01
 184.50  0.2347E+01  0.2198E+01  0.2069E+01  0.2079E+01  0.2092E+01  0.1946E+01  0.1730E+01  0.1751E+01  0.1920E+01  0.2190E+01
 185.00  0.2474E+01  0.2335E+01  0.1879E+01  0.1880E+01  0.1957E+01  0.1997E+01  0.2026E+01  0.2234E+01  0.2395E+01  0.2761E+01
 185.50  0.2898E+01  0.2906E+01  0.2818E+01  0.2882E+01  0.2782E+01  0.2561E+01  0.2488E+01  0.2500E+01  0.2508E+01  0.2446E+01
 186.00  0.2424E+01  0.2518E+01  0.2540E+01  0.2529E+01  0.2592E+01  0.2635E+01  0.2754E+01  0.2807E+01  0.2691E+01  0.2664E+01
 186.50  0.2556E+01  0.2554E+01  0.2502E+01  0.2659E+01  0.2942E+01  0.3032E+01  0.3240E+01  0.3277E+01  0.3238E+01  0.3257E+01
 187.00  0.3233E+01  0.3270E+01  0.3233E+01  0.3416E+01  0.3407E+01  0.3286E+01  0.3134E+01  0.3084E+01  0.3197E+01  0.3288E+01
 187.50  0.3231E+01  0.3128E+01  0.3185E+01  0.3166E+01  0.3151E+01  0.3140E+01  0.3155E+01  0.3114E+01  0.3058E+01  0.3015E+01
 188.00  0.2974E+01  0.2994E+01  0.2961E+01  0.2948E+01  0.2930E+01  0.3045E+01  0.3425E+01  0.3520E+01  0.3453E+01  0.3544E+01
 188.50  0.3372E+01  0.3378E+01  0.3440E+01  0.3397E+01  0.3443E+01  0.3498E+01  0.3413E+01  0.3342E+01  0.3431E+01  0.3630E+01
 189.00  0.3641E+01  0.3585E+01  0.3595E+01  0.3773E+01  0.4015E+01  0.4191E+01  0.4086E+01  0.3403E+01  0.3633E+01  0.3721E+01
 189.50  0.3948E+01  0.3776E+01  0.3709E+01  0.3717E+01  0.3758E+01  0.3613E+01  0.3348E+01  0.3208E+01  0.3119E+01  0.3209E+01
 190.00  0.3459E+01  0.3616E+01  0.3562E+01  0.3330E+01  0.3331E+01  0.3572E+01  0.3649E+01  0.3787E+01  0.3993E+01  0.3958E+01
 190.50  0.3828E+01  0.3850E+01  0.3688E+01  0.3726E+01  0.3841E+01  0.3925E+01  0.3936E+01  0.4136E+01  0.4336E+01  0.4405E+01
 191.00  0.4231E+01  0.3660E+01  0.3757E+01  0.3749E+01  0.3878E+01  0.4035E+01  0.3971E+01  0.3967E+01  0.4044E+01  0.4086E+01
 191.50  0.4259E+01  0.4457E+01  0.4687E+01  0.4400E+01  0.4385E+01  0.4301E+01  0.4131E+01  0.4058E+01  0.4049E+01  0.4166E+01
 192.00  0.4296E+01  0.4453E+01  0.4598E+01  0.4802E+01  0.4796E+01  0.4522E+01  0.4398E+01  0.4557E+01  0.4513E+01  0.4324E+01
 192.50  0.4304E+01  0.4226E+01  0.4424E+01  0.4449E+01  0.4258E+01  0.4286E+01  0.4351E+01  0.4474E+01  0.4499E+01  0.4326E+01
 193.00  0.4092E+01  0.3703E+01  0.3319E+01  0.2958E+01  0.3020E+01  0.2891E+01  0.3051E+01  0.3362E+01  0.3288E+01  0.3341E+01
 193.50  0.3363E+01  0.2995E+01  0.2935E+01  0.2899E+01  0.2730E+01  0.3279E+01  0.3709E+01  0.4033E+01  0.4485E+01  0.4735E+01
 194.00  0.4813E+01  0.4838E+01  0.4901E+01  0.5228E+01  0.5828E+01  0.5869E+01  0.5936E+01  0.6014E+01  0.5722E+01  0.5535E+01
 194.50  0.5403E+01  0.5569E+01  0.5347E+01  0.5209E+01  0.5170E+01  0.5432E+01  0.6086E+01  0.6212E+01  0.6138E+01  0.6118E+01
 195.00  0.5714E+01  0.5395E+01  0.5466E+01  0.5260E+01  0.5080E+01  0.4777E+01  0.4946E+01  0.5203E+01  0.5832E+01  0.5888E+01
 195.50  0.5656E+01  0.5380E+01  0.5368E+01  0.5557E+01  0.5843E+01  0.5783E+01  0.5397E+01  0.5555E+01  0.5896E+01  0.6068E+01
 196.00  0.6044E+01  0.5838E+01  0.5640E+01  0.5273E+01  0.5289E+01  0.5392E+01  0.5454E+01  0.5495E+01  0.5544E+01  0.5933E+01
 196.50  0.6400E+01  0.6526E+01  0.6666E+01  0.6699E+01  0.6771E+01  0.6787E+01  0.6806E+01  0.6848E+01  0.6958E+01  0.6912E+01
 197.00  0.6813E+01  0.6508E+01  0.6184E+01  0.6435E+01  0.6313E+01  0.6274E+01  0.6379E+01  0.6418E+01  0.6171E+01  0.6124E+01
 197.50  0.6126E+01  0.6192E+01  0.6278E+01  0.6252E+01  0.6079E+01  0.5925E+01  0.6297E+01  0.6388E+01  0.6135E+01  0.6141E+01
 198.00  0.6150E+01  0.6095E+01  0.6313E+01  0.6654E+01  0.6940E+01  0.6916E+01  0.6142E+01  0.6216E+01  0.6252E+01  0.6331E+01
 198.50  0.6558E+01  0.6505E+01  0.5841E+01  0.5678E+01  0.5564E+01  0.5749E+01  0.6015E+01  0.5743E+01  0.5609E+01  0.5670E+01
 199.00  0.5965E+01  0.6203E+01  0.6154E+01  0.6016E+01  0.6228E+01  0.6926E+01  0.7091E+01  0.7309E+01  0.7658E+01  0.7591E+01
 199.50  0.7121E+01  0.6972E+01  0.7072E+01  0.7024E+01  0.7120E+01  0.6959E+01  0.6623E+01  0.6618E+01  0.7038E+01  0.7169E+01
 200.00  0.6869E+01  0.6966E+01  0.7029E+01  0.6899E+01  0.6976E+01  0.7318E+01  0.7459E+01  0.7704E+01  0.7459E+01  0.7521E+01
 200.50  0.7214E+01  0.7186E+01  0.7488E+01  0.7976E+01  0.8012E+01  0.7856E+01  0.7503E+01  0.7498E+01  0.7422E+01  0.7495E+01
 201.00  0.7606E+01  0.7716E+01  0.8136E+01  0.7572E+01  0.7019E+01  0.7275E+01  0.7633E+01  0.7990E+01  0.8493E+01  0.8364E+01
 201.50  0.8065E+01  0.7902E+01  0.7826E+01  0.7777E+01  0.7805E+01  0.8002E+01  0.8249E+01  0.8537E+01  0.8971E+01  0.9138E+01
 202.00  0.8742E+01  0.8551E+01  0.8535E+01  0.8449E+01  0.8050E+01  0.7704E+01  0.7714E+01  0.7756E+01  0.8013E+01  0.8682E+01
 202.50  0.8850E+01  0.8128E+01  0.8037E+01  0.6694E+01  0.5917E+01  0.6216E+01  0.7735E+01  0.8646E+01  0.8882E+01  0.9033E+01
 203.00  0.9075E+01  0.8754E+01  0.8756E+01  0.9332E+01  0.9735E+01  0.9981E+01  0.9977E+01  0.9596E+01  0.8920E+01  0.8206E+01
 203.50  0.7821E+01  0.7909E+01  0.8462E+01  0.8916E+01  0.9725E+01  0.1012E+02  0.1001E+02  0.1009E+02  0.9855E+01  0.9632E+01
 204.00  0.8873E+01  0.8399E+01  0.8536E+01  0.9288E+01  0.1010E+02  0.1029E+02  0.1107E+02  0.1122E+02  0.1082E+02  0.1027E+02
 204.50  0.9827E+01  0.9780E+01  0.1016E+02  0.1092E+02  0.1147E+02  0.1112E+02  0.1059E+02  0.1011E+02  0.9945E+01  0.1043E+02
 205.00  0.1061E+02  0.1039E+02  0.1062E+02  0.1069E+02  0.1076E+02  0.1092E+02  0.1099E+02  0.1118E+02  0.1153E+02  0.1132E+02
 205.50  0.1127E+02  0.1083E+02  0.1008E+02  0.9602E+01  0.1010E+02  0.1090E+02  0.1132E+02  0.1091E+02  0.1017E+02  0.9872E+01
 206.00  0.1095E+02  0.1144E+02  0.1159E+02  0.1172E+02  0.1077E+02  0.9720E+01  0.9707E+01  0.9918E+01  0.1049E+02  0.1115E+02
 206.50  0.1129E+02  0.1169E+02  0.1150E+02  0.1116E+02  0.1092E+02  0.1130E+02  0.1196E+02  0.1215E+02  0.1177E+02  0.1155E+02
 207.00  0.1159E+02  0.1147E+02  0.1169E+02  0.1206E+02  0.1247E+02  0.1227E+02  0.1212E+02  0.1248E+02  0.1258E+02  0.1304E+02
 207.50  0.1315E+02  0.1319E+02  0.1343E+02  0.1373E+02  0.1403E+02  0.1428E+02  0.1439E+02  0.1409E+02  0.1324E+02  0.1321E+02
 208.00  0.1347E+02  0.1438E+02  0.1407E+02  0.1366E+02  0.1324E+02  0.1311E+02  0.1284E+02  0.1297E+02  0.1365E+02  0.1359E+02
 208.50  0.1322E+02  0.1289E+02  0.1392E+02  0.1598E+02  0.1687E+02  0.1672E+02  0.1623E+02  0.1696E+02  0.1871E+02  0.1919E+02
 209.00  0.1738E+02  0.1601E+02  0.1563E+02  0.1637E+02  0.1786E+02  0.1865E+02  0.1821E+02  0.2169E+02  0.2534E+02  0.2251E+02
 209.50  0.1843E+02  0.1807E+02  0.1996E+02  0.2141E+02  0.2258E+02  0.2372E+02  0.2509E+02  0.2695E+02  0.2675E+02  0.2448E+02
 210.00  0.2137E+02  0.1902E+02  0.2034E+02  0.2364E+02  0.2890E+02  0.3427E+02  0.3444E+02  0.3026E+02  0.2252E+02  0.1749E+02
 210.50  0.2141E+02  0.2832E+02  0.3551E+02  0.3866E+02  0.3502E+02  0.3369E+02  0.3365E+02  0.3302E+02  0.2819E+02  0.2140E+02
 211.00  0.1948E+02  0.1938E+02  0.2020E+02  0.2437E+02  0.3386E+02  0.3965E+02  0.4051E+02  0.3484E+02  0.3067E+02  0.2919E+02
 211.50  0.2619E+02  0.2367E+02  0.2425E+02  0.3158E+02  0.4100E+02  0.4505E+02  0.4665E+02  0.4032E+02  0.3528E+02  0.3616E+02
 212.00  0.4101E+02  0.4888E+02  0.5173E+02  0.4501E+02  0.3860E+02  0.3514E+02  0.3100E+02  0.2687E+02  0.1992E+02  0.1644E+02
 212.50  0.1414E+02  0.1343E+02  0.1962E+02  0.2663E+02  0.3207E+02  0.3640E+02  0.3624E+02  0.3639E+02  0.3693E+02  0.3734E+02
 213.00  0.3387E+02  0.2820E+02  0.2469E+02  0.2613E+02  0.2963E+02  0.3011E+02  0.2947E+02  0.2866E+02  0.3089E+02  0.3129E+02
 213.50  0.2784E+02  0.2471E+02  0.2589E+02  0.2957E+02  0.3288E+02  0.4055E+02  0.4277E+02  0.3857E+02  0.3189E+02  0.2519E+02
 214.00  0.2204E+02  0.2652E+02  0.3357E+02  0.4303E+02  0.5199E+02  0.5068E+02  0.4700E+02  0.4630E+02  0.4846E+02  0.4929E+02
 214.50  0.4666E+02  0.4359E+02  0.3841E+02  0.3443E+02  0.3309E+02  0.3247E+02  0.3318E+02  0.3593E+02  0.3996E+02  0.4196E+02
 215.00  0.4632E+02  0.4349E+02  0.3583E+02  0.3064E+02  0.3057E+02  0.3282E+02  0.3540E+02  0.4124E+02  0.4622E+02  0.4793E+02
 215.50  0.4559E+02  0.4120E+02  0.3860E+02  0.3623E+02  0.3337E+02  0.2864E+02  0.2403E+02  0.2167E+02  0.2071E+02  0.2235E+02
 216.00  0.2366E+02  0.2866E+02  0.3877E+02  0.4378E+02  0.4233E+02  0.4117E+02  0.3848E+02  0.4004E+02  0.3925E+02  0.3706E+02
 216.50  0.3672E+02  0.3667E+02  0.3162E+02  0.2548E+02  0.1994E+02  0.1759E+02  0.2095E+02  0.2954E+02  0.3132E+02  0.2687E+02
 217.00  0.2626E+02  0.2965E+02  0.3378E+02  0.3582E+02  0.3595E+02  0.3789E+02  0.3922E+02  0.3757E+02  0.3473E+02  0.2954E+02
 217.50  0.2628E+02  0.2477E+02  0.2651E+02  0.3143E+02  0.3424E+02  0.2933E+02  0.2449E+02  0.2453E+02  0.2919E+02  0.4161E+02
 218.00  0.5075E+02  0.5359E+02  0.5413E+02  0.5500E+02  0.5717E+02  0.5920E+02  0.5793E+02  0.5385E+02  0.4900E+02  0.4475E+02
 218.50  0.4305E+02  0.4786E+02  0.5352E+02  0.4556E+02  0.3061E+02  0.2712E+02  0.3221E+02  0.3937E+02  0.4239E+02  0.4006E+02
 219.00  0.3797E+02  0.4199E+02  0.4654E+02  0.4460E+02  0.3991E+02  0.3677E+02  0.5015E+02  0.6416E+02  0.6217E+02  0.5898E+02
 219.50  0.5229E+02  0.4485E+02  0.3850E+02  0.3293E+02  0.3542E+02  0.4118E+02  0.4784E+02  0.5604E+02  0.5988E+02  0.5937E+02
 220.00  0.5716E+02  0.4821E+02  0.3456E+02  0.3185E+02  0.3530E+02  0.4430E+02  0.6032E+02  0.6485E+02  0.6933E+02  0.6571E+02
 220.50  0.5878E+02  0.5785E+02  0.5930E+02  0.5601E+02  0.4768E+02  0.4447E+02  0.4123E+02  0.3685E+02  0.3321E+02  0.3888E+02
 221.00  0.3729E+02  0.3060E+02  0.2186E+02  0.1832E+02  0.2074E+02  0.2358E+02  0.4319E+02  0.5046E+02  0.4638E+02  0.4425E+02
 221.50  0.4610E+02  0.4701E+02  0.4012E+02  0.3112E+02  0.2467E+02  0.2242E+02  0.2517E+02  0.2963E+02  0.3784E+02  0.4886E+02
 222.00  0.5275E+02  0.5207E+02  0.5346E+02  0.5692E+02  0.5754E+02  0.5074E+02  0.4878E+02  0.4724E+02  0.4909E+02  0.5227E+02
 222.50  0.5066E+02  0.4890E+02  0.4939E+02  0.4794E+02  0.4381E+02  0.4175E+02  0.4303E+02  0.4712E+02  0.5351E+02  0.5411E+02
 223.00  0.5109E+02  0.4744E+02  0.4240E+02  0.4175E+02  0.4987E+02  0.6633E+02  0.7564E+02  0.8278E+02  0.8027E+02  0.7441E+02
 223.50  0.7416E+02  0.7661E+02  0.7836E+02  0.7665E+02  0.7122E+02  0.6706E+02  0.6250E+02  0.5236E+02  0.5202E+02  0.6074E+02
 224.00  0.6796E+02  0.6798E+02  0.6239E+02  0.5498E+02  0.5203E+02  0.5148E+02  0.5096E+02  0.4906E+02  0.4649E+02  0.4467E+02
 224.50  0.5205E+02  0.5901E+02  0.6298E+02  0.6406E+02  0.6760E+02  0.7116E+02  0.7471E+02  0.6832E+02  0.5798E+02  0.5256E+02
 225.00  0.5250E+02  0.5314E+02  0.5099E+02  0.4848E+02  0.5203E+02  0.5852E+02  0.5854E+02  0.5176E+02  0.4520E+02  0.4613E+02
 225.50  0.5281E+02  0.5179E+02  0.4557E+02  0.4381E+02  0.4893E+02  0.5158E+02  0.5112E+02  0.5172E+02  0.5466E+02  0.5336E+02
 226.00  0.4616E+02  0.3774E+02  0.3770E+02  0.4279E+02  0.4756E+02  0.5019E+02  0.4897E+02  0.4336E+02  0.3863E+02  0.3678E+02
 226.50  0.3358E+02  0.3135E+02  0.3247E+02  0.3332E+02  0.3371E+02  0.3257E+02  0.3169E+02  0.3132E+02  0.3031E+02  0.2967E+02
 227.00  0.2939E+02  0.3071E+02  0.3196E+02  0.3278E+02  0.3458E+02  0.3601E+02  0.3379E+02  0.3297E+02  0.3632E+02  0.3810E+02
 227.50  0.3584E+02  0.3571E+02  0.3915E+02  0.4219E+02  0.4431E+02  0.4502E+02  0.4638E+02  0.4656E+02  0.4496E+02  0.4377E+02
 228.00  0.4762E+02  0.5507E+02  0.6000E+02  0.6321E+02  0.6355E+02  0.5702E+02  0.4982E+02  0.5124E+02  0.5819E+02  0.6478E+02
 228.50  0.6521E+02  0.5445E+02  0.4148E+02  0.3561E+02  0.3825E+02  0.4686E+02  0.5251E+02  0.4900E+02  0.4530E+02  0.4265E+02
 229.00  0.4067E+02  0.4205E+02  0.4469E+02  0.4582E+02  0.4776E+02  0.4998E+02  0.5138E+02  0.5088E+02  0.4978E+02  0.5339E+02
 229.50  0.5975E+02  0.6183E+02  0.5489E+02  0.4067E+02  0.3146E+02  0.2964E+02  0.3145E+02  0.3496E+02  0.3831E+02  0.3842E+02
 230.00  0.3760E+02  0.4087E+02  0.4579E+02  0.4974E+02  0.5079E+02  0.4371E+02  0.3919E+02  0.4605E+02  0.5268E+02  0.6102E+02
 230.50  0.7170E+02  0.7651E+02  0.7724E+02  0.7191E+02  0.6556E+02  0.6169E+02  0.5727E+02  0.5152E+02  0.4601E+02  0.4277E+02
 231.00  0.3830E+02  0.3398E+02  0.3204E+02  0.3218E+02  0.3264E+02  0.3166E+02  0.3598E+02  0.4717E+02  0.5749E+02  0.6353E+02
 231.50  0.6208E+02  0.5782E+02  0.5439E+02  0.5206E+02  0.5279E+02  0.5679E+02  0.5704E+02  0.5076E+02  0.4108E+02  0.3341E+02
 232.00  0.3428E+02  0.3703E+02  0.4463E+02  0.5686E+02  0.6880E+02  0.8081E+02  0.8040E+02  0.7224E+02  0.6028E+02  0.4556E+02
 232.50  0.3779E+02  0.3559E+02  0.3658E+02  0.3864E+02  0.4320E+02  0.5169E+02  0.5805E+02  0.5874E+02  0.5672E+02  0.5211E+02
 233.00  0.4462E+02  0.3906E+02  0.3659E+02  0.3342E+02  0.3245E+02  0.3661E+02  0.4129E+02  0.4495E+02  0.5102E+02  0.5767E+02
 233.50  0.6080E+02  0.6015E+02  0.5224E+02  0.3978E+02  0.2969E+02  0.2666E+02  0.3006E+02  0.3410E+02  0.3781E+02  0.4075E+02
 234.00  0.4436E+02  0.4899E+02  0.5024E+02  0.4800E+02  0.4097E+02  0.3038E+02  0.2437E+02  0.2355E+02  0.2577E+02  0.2826E+02
 234.50  0.2945E+02  0.3171E+02  0.3470E+02  0.3390E+02  0.2915E+02  0.2720E+02  0.3283E+02  0.4343E+02  0.5085E+02  0.5245E+02
 235.00  0.5244E+02  0.5410E+02  0.5868E+02  0.6292E+02  0.6385E+02  0.6234E+02  0.5612E+02  0.4702E+02  0.4446E+02  0.4973E+02
 235.50  0.5886E+02  0.6500E+02  0.6527E+02  0.6527E+02  0.6252E+02  0.5225E+02  0.3999E+02  0.3314E+02  0.2977E+02  0.3016E+02
 236.00  0.3640E+02  0.4211E+02  0.4566E+02  0.5217E+02  0.5829E+02  0.6006E+02  0.5310E+02  0.4339E+02  0.3903E+02  0.3995E+02
 236.50  0.4225E+02  0.4160E+02  0.3993E+02  0.4054E+02  0.4223E+02  0.4436E+02  0.4955E+02  0.5463E+02  0.5567E+02  0.5838E+02
 237.00  0.6398E+02  0.6850E+02  0.6907E+02  0.5959E+02  0.4447E+02  0.3612E+02  0.3557E+02  0.3857E+02  0.4195E+02  0.4519E+02
 237.50  0.5135E+02  0.6169E+02  0.6812E+02  0.6524E+02  0.5908E+02  0.4935E+02  0.4094E+02  0.3946E+02  0.3972E+02  0.3691E+02
 238.00  0.3071E+02  0.2488E+02  0.2201E+02  0.2188E+02  0.2264E+02  0.2603E+02  0.3064E+02  0.3614E+02  0.4422E+02  0.5103E+02
 238.50  0.5464E+02  0.5649E+02  0.5474E+02  0.4962E+02  0.4161E+02  0.3201E+02  0.3115E+02  0.3796E+02  0.4816E+02  0.6073E+02
 239.00  0.6393E+02  0.5979E+02  0.5937E+02  0.5918E+02  0.5841E+02  0.5687E+02  0.5025E+02  0.3607E+02  0.2423E+02  0.2218E+02
 239.50  0.2806E+02  0.3596E+02  0.4117E+02  0.4539E+02  0.4349E+02  0.3709E+02  0.3225E+02  0.3697E+02  0.4714E+02  0.5169E+02
 240.00  0.5171E+02  0.4937E+02  0.4821E+02  0.4834E+02  0.4750E+02  0.3983E+02  0.2988E+02  0.2663E+02  0.2845E+02  0.3121E+02
 240.50  0.3210E+02  0.3182E+02  0.3309E+02  0.3960E+02  0.4773E+02  0.5014E+02  0.4939E+02  0.4216E+02  0.3243E+02  0.2798E+02
 241.00  0.2870E+02  0.3498E+02  0.4021E+02  0.3894E+02  0.3657E+02  0.3881E+02  0.4332E+02  0.4924E+02  0.5398E+02  0.5569E+02
 241.50  0.5874E+02  0.6107E+02  0.6060E+02  0.6162E+02  0.6579E+02  0.6845E+02  0.6860E+02  0.6998E+02  0.7344E+02  0.7635E+02
 242.00  0.7934E+02  0.8448E+02  0.8334E+02  0.7361E+02  0.6613E+02  0.6352E+02  0.6172E+02  0.6320E+02  0.6766E+02  0.7159E+02
 242.50  0.7672E+02  0.8503E+02  0.8976E+02  0.8421E+02  0.7356E+02  0.6665E+02  0.6723E+02  0.7282E+02  0.7835E+02  0.8036E+02
 243.00  0.7799E+02  0.7257E+02  0.6709E+02  0.6275E+02  0.6335E+02  0.6904E+02  0.7032E+02  0.6429E+02  0.5687E+02  0.5525E+02
 243.50  0.5809E+02  0.6120E+02  0.6676E+02  0.7443E+02  0.7295E+02  0.6531E+02  0.6086E+02  0.5693E+02  0.6208E+02  0.7033E+02
 244.00  0.7561E+02  0.8117E+02  0.8217E+02  0.7985E+02  0.7655E+02  0.7022E+02  0.6507E+02  0.6494E+02  0.6600E+02  0.6596E+02
 244.50  0.6510E+02  0.6212E+02  0.5864E+02  0.5575E+02  0.5110E+02  0.5150E+02  0.5572E+02  0.5586E+02  0.5398E+02  0.5231E+02
 245.00  0.4972E+02  0.4810E+02  0.4740E+02  0.4757E+02  0.4737E+02  0.4643E+02  0.4892E+02  0.5118E+02  0.5260E+02  0.5313E+02
 245.50  0.5132E+02  0.4938E+02  0.4988E+02  0.5573E+02  0.5906E+02  0.5514E+02  0.5262E+02  0.5231E+02  0.5150E+02  0.4948E+02
 246.00  0.4716E+02  0.4511E+02  0.4343E+02  0.4113E+02  0.4041E+02  0.4434E+02  0.4908E+02  0.5207E+02  0.5404E+02  0.5398E+02
 246.50  0.5315E+02  0.5303E+02  0.5363E+02  0.5641E+02  0.5882E+02  0.5971E+02  0.5984E+02  0.5862E+02  0.5767E+02  0.5774E+02
 247.00  0.5999E+02  0.6488E+02  0.6193E+02  0.5195E+02  0.4505E+02  0.4671E+02  0.5766E+02  0.6599E+02  0.6748E+02  0.6656E+02
 247.50  0.6539E+02  0.6352E+02  0.6246E+02  0.6158E+02  0.5753E+02  0.5393E+02  0.5007E+02  0.4454E+02  0.4635E+02  0.5340E+02
 248.00  0.5773E+02  0.6006E+02  0.5696E+02  0.4569E+02  0.3787E+02  0.3370E+02  0.2970E+02  0.3556E+02  0.4419E+02  0.4797E+02
 248.50  0.5384E+02  0.5520E+02  0.5048E+02  0.4688E+02  0.3982E+02  0.3500E+02  0.3627E+02  0.3782E+02  0.3613E+02  0.3271E+02
 249.00  0.3065E+02  0.3129E+02  0.3444E+02  0.4504E+02  0.5436E+02  0.5659E+02  0.6184E+02  0.7029E+02  0.7636E+02  0.7678E+02
 249.50  0.7212E+02  0.6880E+02  0.7120E+02  0.7327E+02  0.7309E+02  0.7228E+02  0.7420E+02  0.7935E+02  0.8143E+02  0.7546E+02
 250.00  0.6405E+02  0.5367E+02  0.5090E+02  0.5738E+02  0.6508E+02  0.6884E+02  0.7218E+02  0.7499E+02  0.7413E+02  0.6846E+02
 250.50  0.5938E+02  0.5072E+02  0.4230E+02  0.4184E+02  0.5109E+02  0.6022E+02  0.6793E+02  0.7309E+02  0.7383E+02  0.6866E+02
 251.00  0.5937E+02  0.5580E+02  0.5639E+02  0.5654E+02  0.5693E+02  0.5249E+02  0.4594E+02  0.4203E+02  0.4034E+02  0.4001E+02
 251.50  0.3940E+02  0.3650E+02  0.3635E+02  0.3978E+02  0.4084E+02  0.4130E+02  0.4133E+02  0.4040E+02  0.4177E+02  0.4708E+02
 252.00  0.5303E+02  0.5460E+02  0.5229E+02  0.4783E+02  0.4019E+02  0.3589E+02  0.3557E+02  0.3635E+02  0.3869E+02  0.4314E+02
 252.50  0.4891E+02  0.5143E+02  0.4938E+02  0.4481E+02  0.4062E+02  0.3652E+02  0.3321E+02  0.3362E+02  0.3473E+02  0.3957E+02
 253.00  0.5134E+02  0.6117E+02  0.6401E+02  0.6208E+02  0.5981E+02  0.5771E+02  0.5771E+02  0.5856E+02  0.5836E+02  0.5797E+02
 253.50  0.5477E+02  0.5217E+02  0.5206E+02  0.5422E+02  0.5774E+02  0.5868E+02  0.5674E+02  0.5567E+02  0.5914E+02  0.6413E+02
 254.00  0.6217E+02  0.5660E+02  0.5513E+02  0.5677E+02  0.6149E+02  0.6724E+02  0.7036E+02  0.7068E+02  0.6854E+02  0.6657E+02
 254.50  0.6270E+02  0.5832E+02  0.5696E+02  0.5796E+02  0.6065E+02  0.6216E+02  0.5915E+02  0.5143E+02  0.4967E+02  0.5482E+02
 255.00  0.6454E+02  0.8056E+02  0.9225E+02  0.9754E+02  0.9172E+02  0.8305E+02  0.8766E+02  0.9682E+02  0.9822E+02  0.9203E+02
 255.50  0.8617E+02  0.8607E+02  0.8684E+02  0.8364E+02  0.8022E+02  0.8483E+02  0.9440E+02  0.1052E+03  0.1082E+03  0.1017E+03
 256.00  0.9925E+02  0.9792E+02  0.9008E+02  0.7938E+02  0.7072E+02  0.6644E+02  0.6972E+02  0.7795E+02  0.8791E+02  0.9812E+02
 256.50  0.1133E+03  0.1284E+03  0.1300E+03  0.1240E+03  0.1225E+03  0.1235E+03  0.1230E+03  0.1277E+03  0.1392E+03  0.1472E+03
 257.00  0.1424E+03  0.1348E+03  0.1374E+03  0.1390E+03  0.1409E+03  0.1512E+03  0.1608E+03  0.1566E+03  0.1370E+03  0.1138E+03
 257.50  0.9358E+02  0.7825E+02  0.7040E+02  0.7876E+02  0.9311E+02  0.1084E+03  0.1250E+03  0.1332E+03  0.1484E+03  0.1633E+03
 258.00  0.1712E+03  0.1872E+03  0.2046E+03  0.1876E+03  0.1446E+03  0.1237E+03  0.1272E+03  0.1326E+03  0.1277E+03  0.1092E+03
 258.50  0.8116E+02  0.6270E+02  0.6331E+02  0.7469E+02  0.9700E+02  0.1110E+03  0.1212E+03  0.1392E+03  0.1655E+03  0.1911E+03
 259.00  0.1890E+03  0.1556E+03  0.1234E+03  0.1154E+03  0.1229E+03  0.1153E+03  0.9265E+02  0.8096E+02  0.8601E+02  0.1019E+03
 259.50  0.1169E+03  0.1159E+03  0.1131E+03  0.1293E+03  0.1293E+03  0.1041E+03  0.7759E+02  0.6047E+02  0.4956E+02  0.4779E+02
 260.00  0.5559E+02  0.8173E+02  0.1150E+03  0.1349E+03  0.1452E+03  0.1490E+03  0.1444E+03  0.1369E+03  0.1328E+03  0.1232E+03
 260.50  0.1032E+03  0.8856E+02  0.7862E+02  0.6880E+02  0.6403E+02  0.7288E+02  0.9040E+02  0.1058E+03  0.1176E+03  0.1213E+03
 261.00  0.1184E+03  0.1033E+03  0.8193E+02  0.6890E+02  0.6368E+02  0.6655E+02  0.7402E+02  0.7074E+02  0.8113E+02  0.1019E+03
 261.50  0.1189E+03  0.1336E+03  0.1371E+03  0.1292E+03  0.1053E+03  0.8846E+02  0.8997E+02  0.9772E+02  0.1168E+03  0.1402E+03
 262.00  0.1420E+03  0.1301E+03  0.1196E+03  0.1203E+03  0.1356E+03  0.1446E+03  0.1449E+03  0.1498E+03  0.1542E+03  0.1486E+03
 262.50  0.1323E+03  0.1065E+03  0.9578E+02  0.1028E+03  0.1103E+03  0.1087E+03  0.9454E+02  0.9051E+02  0.9969E+02  0.1031E+03
 263.00  0.1004E+03  0.7754E+02  0.6147E+02  0.7087E+02  0.8395E+02  0.1002E+03  0.1201E+03  0.1417E+03  0.1686E+03  0.1868E+03
 263.50  0.1871E+03  0.1865E+03  0.2019E+03  0.2253E+03  0.2403E+03  0.2706E+03  0.3145E+03  0.3228E+03  0.2980E+03  0.2773E+03
 264.00  0.2622E+03  0.2516E+03  0.2483E+03  0.2678E+03  0.3063E+03  0.3481E+03  0.3783E+03  0.3706E+03  0.3283E+03  0.2950E+03
 264.50  0.2765E+03  0.2616E+03  0.2520E+03  0.2497E+03  0.2391E+03  0.2160E+03  0.1945E+03  0.1897E+03  0.2065E+03  0.2210E+03
 265.00  0.2258E+03  0.2259E+03  0.2275E+03  0.2395E+03  0.2541E+03  0.2631E+03  0.2649E+03  0.2803E+03  0.3078E+03  0.3381E+03
 265.50  0.3476E+03  0.3232E+03  0.3029E+03  0.3085E+03  0.3150E+03  0.2979E+03  0.2770E+03  0.2820E+03  0.3016E+03  0.3109E+03
 266.00  0.3081E+03  0.2951E+03  0.2720E+03  0.2515E+03  0.2559E+03  0.2618E+03  0.2459E+03  0.2224E+03  0.2327E+03  0.2708E+03
 266.50  0.2928E+03  0.2883E+03  0.2502E+03  0.2363E+03  0.2750E+03  0.2968E+03  0.2861E+03  0.2673E+03  0.2435E+03  0.2279E+03
 267.00  0.2509E+03  0.3004E+03  0.3190E+03  0.2744E+03  0.2223E+03  0.1915E+03  0.2240E+03  0.2916E+03  0.3291E+03  0.3434E+03
 267.50  0.3412E+03  0.3344E+03  0.3177E+03  0.2845E+03  0.2653E+03  0.2519E+03  0.2317E+03  0.2198E+03  0.2203E+03  0.2298E+03
 268.00  0.2457E+03  0.2680E+03  0.2840E+03  0.2892E+03  0.2873E+03  0.2790E+03  0.2690E+03  0.2585E+03  0.2509E+03  0.2536E+03
 268.50  0.2665E+03  0.2843E+03  0.2979E+03  0.3004E+03  0.2910E+03  0.2761E+03  0.2677E+03  0.2513E+03  0.2303E+03  0.2157E+03
 269.00  0.2202E+03  0.2363E+03  0.2609E+03  0.2760E+03  0.2706E+03  0.2714E+03  0.2873E+03  0.2948E+03  0.2857E+03  0.2568E+03
 269.50  0.2093E+03  0.1929E+03  0.2116E+03  0.2484E+03  0.2619E+03  0.2448E+03  0.2358E+03  0.2507E+03  0.2976E+03  0.3629E+03
 270.00  0.3780E+03  0.3287E+03  0.2768E+03  0.2674E+03  0.2853E+03  0.3107E+03  0.3097E+03  0.3251E+03  0.3576E+03  0.3589E+03
 270.50  0.3346E+03  0.2889E+03  0.2596E+03  0.2616E+03  0.2723E+03  0.2782E+03  0.2664E+03  0.2610E+03  0.2768E+03  0.2854E+03
 271.00  0.2806E+03  0.2698E+03  0.2612E+03  0.2826E+03  0.3302E+03  0.3452E+03  0.3030E+03  0.2491E+03  0.2073E+03  0.1990E+03
 271.50  0.2165E+03  0.2384E+03  0.2715E+03  0.2814E+03  0.2523E+03  0.2160E+03  0.1589E+03  0.1181E+03  0.1192E+03  0.1270E+03
 272.00  0.1274E+03  0.1336E+03  0.1644E+03  0.1948E+03  0.2206E+03  0.2122E+03  0.1939E+03  0.1912E+03  0.1953E+03  0.2058E+03
 272.50  0.2182E+03  0.2255E+03  0.2251E+03  0.2158E+03  0.1965E+03  0.2001E+03  0.2309E+03  0.3166E+03  0.3702E+03  0.3342E+03
 273.00  0.2900E+03  0.2762E+03  0.2781E+03  0.2815E+03  0.2764E+03  0.2463E+03  0.2128E+03  0.1983E+03  0.2036E+03  0.2124E+03
 273.50  0.2233E+03  0.2127E+03  0.1695E+03  0.1425E+03  0.1442E+03  0.1598E+03  0.1784E+03  0.1670E+03  0.1343E+03  0.1359E+03
 274.00  0.1542E+03  0.1648E+03  0.1628E+03  0.1480E+03  0.1269E+03  0.1067E+03  0.1013E+03  0.1110E+03  0.1316E+03  0.1659E+03
 274.50  0.1842E+03  0.1587E+03  0.1251E+03  0.1095E+03  0.1184E+03  0.1456E+03  0.1555E+03  0.1326E+03  0.9572E+02  0.9431E+02
 275.00  0.1157E+03  0.1599E+03  0.1989E+03  0.2351E+03  0.2655E+03  0.2560E+03  0.2288E+03  0.2058E+03  0.1855E+03  0.1671E+03
 275.50  0.1310E+03  0.1089E+03  0.1272E+03  0.1590E+03  0.2003E+03  0.2596E+03  0.3242E+03  0.3423E+03  0.3119E+03  0.2898E+03
 276.00  0.2883E+03  0.2873E+03  0.2619E+03  0.2116E+03  0.2109E+03  0.2270E+03  0.2530E+03  0.2899E+03  0.3246E+03  0.3405E+03
 276.50  0.3251E+03  0.2990E+03  0.2744E+03  0.2658E+03  0.2664E+03  0.2609E+03  0.2390E+03  0.2307E+03  0.2431E+03  0.2716E+03
 277.00  0.3036E+03  0.3129E+03  0.2879E+03  0.2613E+03  0.2670E+03  0.2881E+03  0.3076E+03  0.3176E+03  0.3098E+03  0.2886E+03
 277.50  0.2654E+03  0.2474E+03  0.2372E+03  0.2357E+03  0.2222E+03  0.1967E+03  0.1841E+03  0.1808E+03  0.1745E+03  0.1711E+03
 278.00  0.1732E+03  0.1751E+03  0.1820E+03  0.1870E+03  0.1817E+03  0.1730E+03  0.1711E+03  0.1795E+03  0.1873E+03  0.1891E+03
 278.50  0.1910E+03  0.1910E+03  0.1885E+03  0.1802E+03  0.1589E+03  0.1426E+03  0.1408E+03  0.1362E+03  0.1255E+03  0.1181E+03
 279.00  0.1109E+03  0.1044E+03  0.1002E+03  0.9661E+02  0.9089E+02  0.8352E+02  0.7073E+02  0.5916E+02  0.7047E+02  0.9171E+02
 279.50  0.9386E+02  0.8182E+02  0.6926E+02  0.6167E+02  0.6164E+02  0.6576E+02  0.7122E+02  0.7687E+02  0.8358E+02  0.8562E+02
 280.00  0.8306E+02  0.6994E+02  0.6656E+02  0.7956E+02  0.8586E+02  0.8225E+02  0.7571E+02  0.7207E+02  0.7545E+02  0.8706E+02
 280.50  0.1006E+03  0.1111E+03  0.1175E+03  0.1279E+03  0.1382E+03  0.1488E+03  0.1607E+03  0.1723E+03  0.1823E+03  0.1846E+03
 281.00  0.1831E+03  0.1834E+03  0.1827E+03  0.1825E+03  0.1858E+03  0.1800E+03  0.2196E+03  0.2548E+03  0.2773E+03  0.2866E+03
 281.50  0.2819E+03  0.2750E+03  0.2669E+03  0.2587E+03  0.2649E+03  0.2839E+03  0.2993E+03  0.3103E+03  0.3213E+03  0.3294E+03
 282.00  0.3295E+03  0.3240E+03  0.3200E+03  0.3177E+03  0.3119E+03  0.3348E+03  0.3685E+03  0.3828E+03  0.3645E+03  0.3176E+03
 282.50  0.2930E+03  0.3074E+03  0.3291E+03  0.3391E+03  0.3409E+03  0.3408E+03  0.3539E+03  0.3770E+03  0.3939E+03  0.3951E+03
 283.00  0.3935E+03  0.3930E+03  0.3757E+03  0.3651E+03  0.3745E+03  0.3859E+03  0.3897E+03  0.3855E+03  0.3577E+03  0.3072E+03
 283.50  0.2737E+03  0.2676E+03  0.3155E+03  0.3775E+03  0.4021E+03  0.3995E+03  0.3931E+03  0.3863E+03  0.3575E+03  0.3336E+03
 284.00  0.3235E+03  0.3353E+03  0.3630E+03  0.3704E+03  0.3504E+03  0.2953E+03  0.2649E+03  0.2943E+03  0.3242E+03  0.3163E+03
 284.50  0.2855E+03  0.2595E+03  0.2453E+03  0.2329E+03  0.2112E+03  0.1897E+03  0.1696E+03  0.1453E+03  0.1250E+03  0.1073E+03
 285.00  0.9557E+02  0.8250E+02  0.6286E+02  0.5116E+02  0.5302E+02  0.7098E+02  0.9571E+02  0.1193E+03  0.1354E+03  0.1494E+03
 285.50  0.1682E+03  0.1870E+03  0.2051E+03  0.2231E+03  0.2352E+03  0.2467E+03  0.2661E+03  0.3030E+03  0.3617E+03  0.3735E+03
 286.00  0.3717E+03  0.3793E+03  0.3810E+03  0.3781E+03  0.3742E+03  0.3776E+03  0.4033E+03  0.4246E+03  0.4108E+03  0.4053E+03
 286.50  0.4194E+03  0.4161E+03  0.3851E+03  0.3612E+03  0.3547E+03  0.3478E+03  0.3350E+03  0.3235E+03  0.3550E+03  0.4212E+03
 287.00  0.4821E+03  0.5118E+03  0.5101E+03  0.4948E+03  0.4727E+03  0.4451E+03  0.4159E+03  0.4053E+03  0.4190E+03  0.4222E+03
 287.50  0.3979E+03  0.3727E+03  0.3714E+03  0.4111E+03  0.4126E+03  0.3689E+03  0.3294E+03  0.3017E+03  0.2876E+03  0.2594E+03
 288.00  0.2061E+03  0.1477E+03  0.1299E+03  0.1635E+03  0.2204E+03  0.2889E+03  0.3385E+03  0.4040E+03  0.4645E+03  0.4864E+03
 288.50  0.4814E+03  0.4654E+03  0.4558E+03  0.4499E+03  0.4416E+03  0.4432E+03  0.4544E+03  0.4467E+03  0.4457E+03  0.4503E+03
 289.00  0.4440E+03  0.4516E+03  0.4631E+03  0.4656E+03  0.4561E+03  0.4541E+03  0.4608E+03  0.4585E+03  0.4901E+03  0.5528E+03
 289.50  0.5924E+03  0.6015E+03  0.6000E+03  0.5916E+03  0.5836E+03  0.5858E+03  0.5967E+03  0.6232E+03  0.6872E+03  0.7497E+03
 290.00  0.7735E+03  0.6963E+03  0.6229E+03  0.6305E+03  0.6754E+03  0.7332E+03  0.7521E+03  0.7541E+03  0.7556E+03  0.7386E+03
 290.50  0.7010E+03  0.6685E+03  0.6650E+03  0.6547E+03  0.6338E+03  0.6228E+03  0.6220E+03  0.6255E+03  0.6258E+03  0.6189E+03
 291.00  0.6190E+03  0.6247E+03  0.6379E+03  0.7039E+03  0.7719E+03  0.7539E+03  0.6959E+03  0.6517E+03  0.5990E+03  0.5727E+03
 291.50  0.5685E+03  0.6011E+03  0.6247E+03  0.6135E+03  0.5725E+03  0.5719E+03  0.6088E+03  0.6286E+03  0.6226E+03  0.6144E+03
 292.00  0.6264E+03  0.6328E+03  0.6384E+03  0.6360E+03  0.5826E+03  0.5284E+03  0.5132E+03  0.5264E+03  0.5372E+03  0.5230E+03
 292.50  0.4884E+03  0.4585E+03  0.4931E+03  0.5422E+03  0.5559E+03  0.4955E+03  0.4040E+03  0.4824E+03  0.6277E+03  0.6846E+03
 293.00  0.6937E+03  0.7139E+03  0.7336E+03  0.7081E+03  0.6690E+03  0.6356E+03  0.6337E+03  0.6593E+03  0.7323E+03  0.7341E+03
 293.50  0.6070E+03  0.4500E+03  0.3654E+03  0.3827E+03  0.4296E+03  0.4666E+03  0.4894E+03  0.5111E+03  0.5735E+03  0.5737E+03
 294.00  0.5257E+03  0.5026E+03  0.5457E+03  0.6131E+03  0.6603E+03  0.6436E+03  0.5990E+03  0.5561E+03  0.5433E+03  0.5852E+03
 294.50  0.6995E+03  0.7153E+03  0.5625E+03  0.4262E+03  0.3585E+03  0.3265E+03  0.3315E+03  0.3821E+03  0.4704E+03  0.5371E+03
 295.00  0.6074E+03  0.6758E+03  0.7216E+03  0.7510E+03  0.6842E+03  0.5373E+03  0.4673E+03  0.4976E+03  0.5826E+03  0.6730E+03
 295.50  0.6637E+03  0.5782E+03  0.5224E+03  0.5502E+03  0.6214E+03  0.7022E+03  0.7251E+03  0.6708E+03  0.6142E+03  0.5926E+03
 296.00  0.5933E+03  0.6279E+03  0.6956E+03  0.7497E+03  0.7792E+03  0.7400E+03  0.6747E+03  0.5669E+03  0.4528E+03  0.4062E+03
 296.50  0.3770E+03  0.3170E+03  0.2849E+03  0.3256E+03  0.4630E+03  0.5246E+03  0.4898E+03  0.4208E+03  0.3549E+03  0.3966E+03
 297.00  0.4756E+03  0.5367E+03  0.5470E+03  0.4656E+03  0.3822E+03  0.3836E+03  0.5090E+03  0.6174E+03  0.6692E+03  0.6678E+03
 297.50  0.6437E+03  0.6474E+03  0.7495E+03  0.8532E+03  0.8393E+03  0.7648E+03  0.6714E+03  0.6171E+03  0.6006E+03  0.5756E+03
 298.00  0.5227E+03  0.4177E+03  0.4022E+03  0.4246E+03  0.3966E+03  0.3327E+03  0.3068E+03  0.3067E+03  0.3126E+03  0.3207E+03
 298.50  0.3557E+03  0.4128E+03  0.4281E+03  0.4311E+03  0.4642E+03  0.5170E+03  0.5732E+03  0.6277E+03  0.6790E+03  0.7162E+03
 299.00  0.7304E+03  0.6858E+03  0.6026E+03  0.5851E+03  0.5794E+03  0.5406E+03  0.4595E+03  0.3722E+03  0.3411E+03  0.3872E+03
 299.50  0.5542E+03  0.6190E+03  0.6707E+03  0.6961E+03  0.6849E+03  0.6545E+03  0.5530E+03  0.4204E+03  0.3275E+03  0.2749E+03
 300.00  0.2824E+03  0.3119E+03  0.3135E+03  0.3000E+03  0.2913E+03  0.3321E+03  0.4368E+03  0.5262E+03  0.5727E+03  0.5937E+03
 300.50  0.5603E+03  0.5021E+03  0.4482E+03  0.3793E+03  0.3481E+03  0.3612E+03  0.3766E+03  0.4064E+03  0.4555E+03  0.5534E+03
 301.00  0.6326E+03  0.5669E+03  0.5126E+03  0.5450E+03  0.5766E+03  0.5936E+03  0.5935E+03  0.5807E+03  0.5822E+03  0.5846E+03
 301.50  0.5872E+03  0.5616E+03  0.5135E+03  0.4702E+03  0.4330E+03  0.4009E+03  0.3762E+03  0.3504E+03  0.2771E+03  0.2039E+03
 302.00  0.1893E+03  0.2506E+03  0.4046E+03  0.5678E+03  0.6379E+03  0.6556E+03  0.6123E+03  0.5842E+03  0.5211E+03  0.4488E+03
 302.50  0.4180E+03  0.4283E+03  0.5383E+03  0.7271E+03  0.8315E+03  0.8111E+03  0.7513E+03  0.7047E+03  0.6775E+03  0.6631E+03
 303.00  0.6043E+03  0.5850E+03  0.7033E+03  0.8131E+03  0.8318E+03  0.8240E+03  0.7936E+03  0.7725E+03  0.7894E+03  0.8333E+03
 303.50  0.8060E+03  0.6765E+03  0.5387E+03  0.4080E+03  0.3984E+03  0.5187E+03  0.6402E+03  0.6969E+03  0.6996E+03  0.6609E+03
 304.00  0.6021E+03  0.5369E+03  0.4912E+03  0.5516E+03  0.6423E+03  0.7014E+03  0.7414E+03  0.7609E+03  0.7675E+03  0.7874E+03
 304.50  0.8067E+03  0.7091E+03  0.5473E+03  0.4406E+03  0.4334E+03  0.5362E+03  0.6434E+03  0.7570E+03  0.7709E+03  0.7099E+03
 305.00  0.6905E+03  0.7672E+03  0.9233E+03  0.9538E+03  0.8485E+03  0.7441E+03  0.6730E+03  0.6070E+03  0.6469E+03  0.7221E+03
 305.50  0.7272E+03  0.6678E+03  0.5636E+03  0.4541E+03  0.3773E+03  0.3533E+03  0.3457E+03  0.3942E+03  0.4645E+03  0.5769E+03
 306.00  0.6954E+03  0.7935E+03  0.8060E+03  0.7956E+03  0.7577E+03  0.6998E+03  0.6165E+03  0.5748E+03  0.6072E+03  0.6508E+03
 306.50  0.6498E+03  0.5855E+03  0.4962E+03  0.4629E+03  0.5252E+03  0.6396E+03  0.7167E+03  0.7756E+03  0.8016E+03  0.8020E+03
 307.00  0.7916E+03  0.7606E+03  0.7167E+03  0.6829E+03  0.6951E+03  0.7394E+03  0.7751E+03  0.7315E+03  0.6272E+03  0.5763E+03
 307.50  0.6327E+03  0.7445E+03  0.7845E+03  0.7548E+03  0.7015E+03  0.6616E+03  0.6987E+03  0.7798E+03  0.8141E+03  0.7815E+03
 308.00  0.6927E+03  0.6164E+03  0.5726E+03  0.5773E+03  0.5903E+03  0.6337E+03  0.7153E+03  0.8030E+03  0.8682E+03  0.9011E+03
 308.50  0.8877E+03  0.7664E+03  0.7037E+03  0.6370E+03  0.6181E+03  0.6627E+03  0.6951E+03  0.6768E+03  0.6521E+03  0.6004E+03
 309.00  0.5338E+03  0.5089E+03  0.4874E+03  0.4366E+03  0.3731E+03  0.4023E+03  0.4606E+03  0.5417E+03  0.6954E+03  0.7336E+03
 309.50  0.6850E+03  0.5909E+03  0.4785E+03  0.4843E+03  0.5764E+03  0.6433E+03  0.5839E+03  0.4738E+03  0.3914E+03  0.3439E+03
 310.00  0.3335E+03  0.3537E+03  0.4017E+03  0.4859E+03  0.6303E+03  0.7653E+03  0.8363E+03  0.8541E+03  0.8358E+03  0.7996E+03
 310.50  0.8264E+03  0.8532E+03  0.8756E+03  0.9034E+03  0.9492E+03  0.9970E+03  0.9868E+03  0.9312E+03  0.8579E+03  0.8234E+03
 311.00  0.8498E+03  0.8795E+03  0.9259E+03  0.9776E+03  0.9689E+03  0.8908E+03  0.8329E+03  0.8445E+03  0.8903E+03  0.9301E+03
 311.50  0.8919E+03  0.8256E+03  0.7547E+03  0.7152E+03  0.7046E+03  0.6996E+03  0.6914E+03  0.6571E+03  0.6511E+03  0.6631E+03
 312.00  0.6625E+03  0.6527E+03  0.6515E+03  0.7076E+03  0.7662E+03  0.8387E+03  0.8815E+03  0.8146E+03  0.7287E+03  0.6780E+03
 312.50  0.6783E+03  0.7299E+03  0.7763E+03  0.7984E+03  0.7855E+03  0.7676E+03  0.7904E+03  0.8086E+03  0.7830E+03  0.7540E+03
 313.00  0.7596E+03  0.7564E+03  0.7484E+03  0.7479E+03  0.7511E+03  0.7333E+03  0.6948E+03  0.6823E+03  0.7379E+03  0.7834E+03
 313.50  0.7746E+03  0.7714E+03  0.8147E+03  0.8874E+03  0.9323E+03  0.9641E+03  0.9493E+03  0.9078E+03  0.8766E+03  0.8816E+03
 314.00  0.9114E+03  0.9307E+03  0.9234E+03  0.8787E+03  0.7428E+03  0.5448E+03  0.4210E+03  0.3742E+03  0.4127E+03  0.5326E+03
 314.50  0.6258E+03  0.6819E+03  0.6885E+03  0.6889E+03  0.7094E+03  0.7785E+03  0.8748E+03  0.8797E+03  0.8261E+03  0.8080E+03
 315.00  0.8104E+03  0.8121E+03  0.8037E+03  0.8060E+03  0.8234E+03  0.8384E+03  0.8166E+03  0.7640E+03  0.7568E+03  0.7771E+03
 315.50  0.7648E+03  0.7284E+03  0.6115E+03  0.5317E+03  0.4587E+03  0.4409E+03  0.4501E+03  0.4896E+03  0.5145E+03  0.5106E+03
 316.00  0.5085E+03  0.5346E+03  0.5978E+03  0.6647E+03  0.7431E+03  0.7684E+03  0.7341E+03  0.7050E+03  0.7146E+03  0.7116E+03
 316.50  0.7082E+03  0.7437E+03  0.8141E+03  0.8201E+03  0.7600E+03  0.7197E+03  0.7185E+03  0.7547E+03  0.8505E+03  0.9173E+03
 317.00  0.9928E+03  0.1022E+04  0.1020E+04  0.1027E+04  0.1012E+04  0.9744E+03  0.9388E+03  0.8927E+03  0.8767E+03  0.9222E+03
 317.50  0.9943E+03  0.1045E+04  0.1035E+04  0.9307E+03  0.8190E+03  0.6919E+03  0.6118E+03  0.5615E+03  0.5636E+03  0.5802E+03
 318.00  0.5687E+03  0.5601E+03  0.5822E+03  0.6111E+03  0.6302E+03  0.6618E+03  0.6777E+03  0.6892E+03  0.7299E+03  0.7659E+03
 318.50  0.7761E+03  0.7660E+03  0.7772E+03  0.7883E+03  0.8022E+03  0.8795E+03  0.9949E+03  0.1021E+04  0.9417E+03  0.8277E+03
 319.00  0.7197E+03  0.6464E+03  0.5527E+03  0.5001E+03  0.5484E+03  0.6125E+03  0.6740E+03  0.7253E+03  0.7492E+03  0.7518E+03
 319.50  0.7417E+03  0.7222E+03  0.7069E+03  0.7413E+03  0.8504E+03  0.1006E+04  0.9532E+03  0.8549E+03  0.7946E+03  0.7727E+03
 320.00  0.8435E+03  0.9094E+03  0.9116E+03  0.8770E+03  0.8682E+03  0.9100E+03  0.9887E+03  0.1022E+04  0.9863E+03  0.9605E+03
 320.50  0.9688E+03  0.9894E+03  0.9988E+03  0.9911E+03  0.9317E+03  0.8242E+03  0.7832E+03  0.7657E+03  0.7352E+03  0.7008E+03
 321.00  0.6493E+03  0.6093E+03  0.6268E+03  0.6514E+03  0.6378E+03  0.6100E+03  0.5905E+03  0.6020E+03  0.6653E+03  0.7848E+03
 321.50  0.7866E+03  0.7564E+03  0.7297E+03  0.7569E+03  0.8617E+03  0.9601E+03  0.9717E+03  0.9339E+03  0.9360E+03  0.9902E+03
 322.00  0.9955E+03  0.8989E+03  0.7768E+03  0.7148E+03  0.7135E+03  0.7919E+03  0.8970E+03  0.9020E+03  0.8474E+03  0.7424E+03
 322.50  0.6921E+03  0.6927E+03  0.7054E+03  0.6768E+03  0.6427E+03  0.6174E+03  0.5922E+03  0.5729E+03  0.6001E+03  0.6710E+03
 323.00  0.7225E+03  0.7871E+03  0.8554E+03  0.8541E+03  0.8195E+03  0.7831E+03  0.6778E+03  0.6693E+03  0.7144E+03  0.7347E+03
 323.50  0.7102E+03  0.6685E+03  0.6880E+03  0.7648E+03  0.8396E+03  0.8262E+03  0.7613E+03  0.7261E+03  0.8088E+03  0.9148E+03
 324.00  0.9372E+03  0.8909E+03  0.8671E+03  0.8773E+03  0.8708E+03  0.8372E+03  0.8252E+03  0.8612E+03  0.9233E+03  0.9651E+03
 324.50  0.9942E+03  0.9526E+03  0.8797E+03  0.8070E+03  0.7601E+03  0.7416E+03  0.7811E+03  0.8155E+03  0.8133E+03  0.8052E+03
 325.00  0.8102E+03  0.8344E+03  0.8647E+03  0.8726E+03  0.8848E+03  0.8821E+03  0.8403E+03  0.8852E+03  0.1025E+04  0.1101E+04
 325.50  0.1120E+04  0.1106E+04  0.1069E+04  0.1036E+04  0.1045E+04  0.1086E+04  0.1147E+04  0.1157E+04  0.1144E+04  0.1144E+04
 326.00  0.1099E+04  0.1065E+04  0.1098E+04  0.1109E+04  0.1037E+04  0.9687E+03  0.9103E+03  0.8830E+03  0.9174E+03  0.9925E+03
 326.50  0.1099E+04  0.1135E+04  0.1127E+04  0.1132E+04  0.1126E+04  0.1103E+04  0.1088E+04  0.1066E+04  0.1004E+04  0.9318E+03
 327.00  0.9172E+03  0.9605E+03  0.1021E+04  0.1080E+04  0.1049E+04  0.1038E+04  0.1078E+04  0.1113E+04  0.1092E+04  0.1016E+04
 327.50  0.9788E+03  0.9677E+03  0.1009E+04  0.1011E+04  0.9856E+03  0.9415E+03  0.9279E+03  0.9628E+03  0.9993E+03  0.1021E+04
 328.00  0.1001E+04  0.9411E+03  0.9174E+03  0.9399E+03  0.9995E+03  0.1034E+04  0.1013E+04  0.9906E+03  0.9713E+03  0.9159E+03
 328.50  0.8082E+03  0.7532E+03  0.7633E+03  0.8201E+03  0.8779E+03  0.9591E+03  0.1080E+04  0.1157E+04  0.1160E+04  0.1142E+04
 329.00  0.1118E+04  0.1086E+04  0.1101E+04  0.1143E+04  0.1184E+04  0.1248E+04  0.1236E+04  0.1166E+04  0.1140E+04  0.1155E+04
 329.50  0.1186E+04  0.1222E+04  0.1219E+04  0.1161E+04  0.1142E+04  0.1134E+04  0.1234E+04  0.1313E+04  0.1373E+04  0.1357E+04
 330.00  0.1319E+04  0.1143E+04  0.1032E+04  0.9970E+03  0.1046E+04  0.1092E+04  0.1085E+04  0.1020E+04  0.8963E+03  0.7890E+03
 330.50  0.7833E+03  0.8250E+03  0.8920E+03  0.9770E+03  0.1045E+04  0.1077E+04  0.1085E+04  0.1068E+04  0.1051E+04  0.1081E+04
 331.00  0.1086E+04  0.1053E+04  0.1005E+04  0.1005E+04  0.9691E+03  0.9290E+03  0.8801E+03  0.8889E+03  0.9533E+03  0.1011E+04
 331.50  0.1048E+04  0.1068E+04  0.1091E+04  0.1106E+04  0.1106E+04  0.1098E+04  0.1060E+04  0.1047E+04  0.1037E+04  0.1052E+04
 332.00  0.1063E+04  0.9932E+03  0.8901E+03  0.8298E+03  0.8172E+03  0.8653E+03  0.9427E+03  0.1053E+04  0.1131E+04  0.1173E+04
 332.50  0.1119E+04  0.1034E+04  0.1019E+04  0.1018E+04  0.9991E+03  0.8909E+03  0.8653E+03  0.8979E+03  0.1008E+04  0.1069E+04
 333.00  0.1042E+04  0.1031E+04  0.1061E+04  0.1092E+04  0.1056E+04  0.1028E+04  0.9854E+03  0.9114E+03  0.8247E+03  0.7559E+03
 333.50  0.7423E+03  0.7618E+03  0.8294E+03  0.9280E+03  0.9957E+03  0.1029E+04  0.1017E+04  0.9955E+03  0.9890E+03  0.1026E+04
 334.00  0.9719E+03  0.9259E+03  0.9338E+03  0.9936E+03  0.1064E+04  0.1105E+04  0.1125E+04  0.1116E+04  0.1132E+04  0.1130E+04
 334.50  0.1109E+04  0.1102E+04  0.1090E+04  0.1048E+04  0.9006E+03  0.7469E+03  0.7069E+03  0.7740E+03  0.9309E+03  0.1058E+04
 335.00  0.1102E+04  0.1118E+04  0.1135E+04  0.1131E+04  0.1090E+04  0.1052E+04  0.1051E+04  0.1099E+04  0.1167E+04  0.1190E+04
 335.50  0.1168E+04  0.1159E+04  0.1148E+04  0.1062E+04  0.9271E+03  0.7499E+03  0.6573E+03  0.5781E+03  0.5270E+03  0.4542E+03
 336.00  0.4842E+03  0.6016E+03  0.7689E+03  0.9158E+03  0.9853E+03  0.1024E+04  0.1094E+04  0.1130E+04  0.1116E+04  0.1060E+04
 336.50  0.9897E+03  0.9055E+03  0.8300E+03  0.8093E+03  0.7777E+03  0.7122E+03  0.6774E+03  0.6996E+03  0.7345E+03  0.7602E+03
 337.00  0.7384E+03  0.7072E+03  0.6697E+03  0.7399E+03  0.8167E+03  0.8490E+03  0.8735E+03  0.9491E+03  0.1057E+04  0.1119E+04
 337.50  0.1155E+04  0.1168E+04  0.1165E+04  0.1150E+04  0.1052E+04  0.9005E+03  0.8347E+03  0.7346E+03  0.6491E+03  0.6813E+03
 338.00  0.8528E+03  0.9684E+03  0.1008E+04  0.9998E+03  0.9364E+03  0.9200E+03  0.9668E+03  0.1034E+04  0.1039E+04  0.1096E+04
 338.50  0.1167E+04  0.1142E+04  0.9953E+03  0.9278E+03  0.9171E+03  0.9548E+03  0.1061E+04  0.1168E+04  0.1183E+04  0.1060E+04
 339.00  0.9662E+03  0.9561E+03  0.8532E+03  0.7725E+03  0.7327E+03  0.7798E+03  0.8634E+03  0.9591E+03  0.1012E+04  0.1029E+04
 339.50  0.1049E+04  0.1083E+04  0.1102E+04  0.1138E+04  0.1168E+04  0.1141E+04  0.1134E+04  0.1203E+04  0.1312E+04  0.1338E+04
 340.00  0.1267E+04  0.1164E+04  0.1110E+04  0.1098E+04  0.1116E+04  0.1103E+04  0.1043E+04  0.1002E+04  0.1045E+04  0.1083E+04
 340.50  0.1075E+04  0.1003E+04  0.9351E+03  0.9303E+03  0.9755E+03  0.9893E+03  0.9586E+03  0.9581E+03  0.9925E+03  0.1052E+04
 341.00  0.1097E+04  0.1154E+04  0.1113E+04  0.9980E+03  0.8584E+03  0.7977E+03  0.7189E+03  0.7008E+03  0.8253E+03  0.9513E+03
 341.50  0.1000E+04  0.1028E+04  0.1034E+04  0.1021E+04  0.1034E+04  0.1116E+04  0.1195E+04  0.1247E+04  0.1244E+04  0.1197E+04
 342.00  0.1180E+04  0.1160E+04  0.1078E+04  0.9836E+03  0.9300E+03  0.8984E+03  0.8900E+03  0.9501E+03  0.1064E+04  0.1162E+04
 342.50  0.1069E+04  0.9925E+03  0.9774E+03  0.9924E+03  0.1022E+04  0.1108E+04  0.1230E+04  0.1287E+04  0.1308E+04  0.1318E+04
 343.00  0.1273E+04  0.1178E+04  0.1098E+04  0.1039E+04  0.9480E+03  0.8249E+03  0.9924E+03  0.1173E+04  0.1219E+04  0.1210E+04
 343.50  0.1150E+04  0.1050E+04  0.9768E+03  0.9545E+03  0.9695E+03  0.1004E+04  0.9750E+03  0.8814E+03  0.7129E+03  0.5449E+03
 344.00  0.5008E+03  0.5372E+03  0.5945E+03  0.6527E+03  0.6720E+03  0.6364E+03  0.6594E+03  0.7645E+03  0.8510E+03  0.8639E+03
 344.50  0.8217E+03  0.8025E+03  0.8334E+03  0.9330E+03  0.1008E+04  0.1017E+04  0.1013E+04  0.1047E+04  0.1114E+04  0.1186E+04
 345.00  0.1230E+04  0.1183E+04  0.1042E+04  0.8819E+03  0.8776E+03  0.9541E+03  0.1071E+04  0.1194E+04  0.1207E+04  0.1184E+04
 345.50  0.1138E+04  0.1095E+04  0.1094E+04  0.1043E+04  0.9420E+03  0.9052E+03  0.9003E+03  0.8856E+03  0.8506E+03  0.8381E+03
 346.00  0.7898E+03  0.7798E+03  0.8186E+03  0.9291E+03  0.1038E+04  0.1128E+04  0.1194E+04  0.1207E+04  0.1132E+04  0.9761E+03
 346.50  0.8859E+03  0.9411E+03  0.1045E+04  0.1140E+04  0.1176E+04  0.1150E+04  0.1107E+04  0.1119E+04  0.1187E+04  0.1258E+04
 347.00  0.1187E+04  0.1052E+04  0.9768E+03  0.9674E+03  0.9769E+03  0.9648E+03  0.9330E+03  0.8765E+03  0.7811E+03  0.6947E+03
 347.50  0.6887E+03  0.6963E+03  0.7940E+03  0.9251E+03  0.1009E+04  0.1053E+04  0.1068E+04  0.1065E+04  0.1050E+04  0.1042E+04
 348.00  0.1033E+04  0.1049E+04  0.1015E+04  0.9457E+03  0.8814E+03  0.8770E+03  0.8988E+03  0.8993E+03  0.8990E+03  0.9182E+03
 348.50  0.9992E+03  0.1122E+04  0.1215E+04  0.1196E+04  0.1068E+04  0.9415E+03  0.8856E+03  0.8354E+03  0.7622E+03  0.7254E+03
 349.00  0.8053E+03  0.9193E+03  0.8713E+03  0.8091E+03  0.8466E+03  0.9209E+03  0.1008E+04  0.1073E+04  0.9992E+03  0.9288E+03
 349.50  0.8571E+03  0.8089E+03  0.7568E+03  0.7555E+03  0.7987E+03  0.1022E+04  0.1190E+04  0.1253E+04  0.1238E+04  0.1204E+04
 350.00  0.1206E+04  0.1188E+04  0.1151E+04  0.1180E+04  0.1279E+04  0.1357E+04  0.1327E+04  0.1208E+04  0.1119E+04  0.1078E+04
 350.50  0.1047E+04  0.1043E+04  0.1095E+04  0.1151E+04  0.1177E+04  0.1209E+04  0.1176E+04  0.1055E+04  0.9336E+03  0.9402E+03
 351.00  0.1020E+04  0.1047E+04  0.1038E+04  0.1002E+04  0.9280E+03  0.8527E+03  0.8297E+03  0.8027E+03  0.8371E+03  0.9577E+03
 351.50  0.1085E+04  0.1147E+04  0.1258E+04  0.1328E+04  0.1302E+04  0.1287E+04  0.1253E+04  0.1181E+04  0.1114E+04  0.1040E+04
 352.00  0.9523E+03  0.1008E+04  0.1042E+04  0.1008E+04  0.9261E+03  0.8276E+03  0.7536E+03  0.7527E+03  0.7993E+03  0.7549E+03
 352.50  0.6793E+03  0.7109E+03  0.8622E+03  0.1076E+04  0.1168E+04  0.1190E+04  0.1175E+04  0.1159E+04  0.1176E+04  0.1205E+04
 353.00  0.1145E+04  0.1052E+04  0.9855E+03  0.9669E+03  0.9992E+03  0.1137E+04  0.1254E+04  0.1279E+04  0.1245E+04  0.1212E+04
 353.50  0.1178E+04  0.1166E+04  0.1143E+04  0.1111E+04  0.1147E+04  0.1259E+04  0.1412E+04  0.1369E+04  0.1238E+04  0.1155E+04
 354.00  0.1110E+04  0.1079E+04  0.1086E+04  0.1156E+04  0.1241E+04  0.1311E+04  0.1309E+04  0.1263E+04  0.1227E+04  0.1233E+04
 354.50  0.1281E+04  0.1303E+04  0.1229E+04  0.1141E+04  0.1174E+04  0.1244E+04  0.1291E+04  0.1319E+04  0.1301E+04  0.1269E+04
 355.00  0.1246E+04  0.1228E+04  0.1168E+04  0.1122E+04  0.1076E+04  0.9952E+03  0.9487E+03  0.9355E+03  0.1040E+04  0.1182E+04
 355.50  0.1170E+04  0.1204E+04  0.1207E+04  0.1130E+04  0.1056E+04  0.1035E+04  0.1076E+04  0.1129E+04  0.1153E+04  0.1165E+04
 356.00  0.1191E+04  0.1218E+04  0.1281E+04  0.1390E+04  0.1440E+04  0.1398E+04  0.1200E+04  0.1050E+04  0.7454E+03  0.6720E+03
 356.50  0.6744E+03  0.8102E+03  0.9951E+03  0.1118E+04  0.1145E+04  0.1041E+04  0.6716E+03  0.6455E+03  0.6765E+03  0.8132E+03
 357.00  0.8618E+03  0.8894E+03  0.1047E+04  0.1099E+04  0.1100E+04  0.1089E+04  0.1094E+04  0.1088E+04  0.1097E+04  0.1146E+04
 357.50  0.1221E+04  0.1260E+04  0.1203E+04  0.1108E+04  0.1008E+04  0.9660E+03  0.9809E+03  0.9428E+03  0.7967E+03  0.5580E+03
 358.00  0.5084E+03  0.5801E+03  0.6627E+03  0.7615E+03  0.8821E+03  0.9240E+03  0.8525E+03  0.7750E+03  0.7106E+03  0.6571E+03
 358.50  0.6236E+03  0.6295E+03  0.6817E+03  0.7762E+03  0.8384E+03  0.8663E+03  0.8596E+03  0.9790E+03  0.1068E+04  0.1212E+04
 359.00  0.1314E+04  0.1333E+04  0.1325E+04  0.1208E+04  0.1079E+04  0.1123E+04  0.1152E+04  0.1196E+04  0.1249E+04  0.1323E+04
 359.50  0.1390E+04  0.1406E+04  0.1389E+04  0.1327E+04  0.1324E+04  0.1290E+04  0.1316E+04  0.1382E+04  0.1469E+04  0.1494E+04
 360.00  0.1426E+04  0.1191E+04  0.1075E+04  0.1059E+04  0.1044E+04  0.1053E+04  0.1058E+04  0.1010E+04  0.9457E+03  0.1022E+04
 360.50  0.1079E+04  0.1139E+04  0.1161E+04  0.1078E+04  0.8932E+03  0.7463E+03  0.7295E+03  0.7597E+03  0.8151E+03  0.9494E+03
 361.00  0.1102E+04  0.1188E+04  0.1167E+04  0.1083E+04  0.1017E+04  0.9977E+03  0.1052E+04  0.1159E+04  0.1253E+04  0.1286E+04
 361.50  0.1281E+04  0.1204E+04  0.1054E+04  0.8409E+03  0.6454E+03  0.5571E+03  0.5852E+03  0.7230E+03  0.8864E+03  0.9705E+03
 362.00  0.9936E+03  0.1125E+04  0.1260E+04  0.1277E+04  0.1202E+04  0.1136E+04  0.1125E+04  0.1172E+04  0.1294E+04  0.1440E+04
 362.50  0.1521E+04  0.1544E+04  0.1512E+04  0.1481E+04  0.1467E+04  0.1487E+04  0.1437E+04  0.1290E+04  0.1006E+04  0.8299E+03
 363.00  0.7005E+03  0.6814E+03  0.8116E+03  0.9694E+03  0.1085E+04  0.1062E+04  0.9785E+03  0.1040E+04  0.1114E+04  0.1128E+04
 363.50  0.1134E+04  0.1145E+04  0.1151E+04  0.1163E+04  0.1239E+04  0.1303E+04  0.1346E+04  0.1353E+04  0.1362E+04  0.1319E+04
 364.00  0.1308E+04  0.1272E+04  0.1233E+04  0.1182E+04  0.1157E+04  0.1131E+04  0.1060E+04  0.9930E+03  0.1005E+04  0.1086E+04
 364.50  0.1123E+04  0.1044E+04  0.8932E+03  0.8424E+03  0.9081E+03  0.9603E+03  0.1023E+04  0.1075E+04  0.1137E+04  0.1139E+04
 365.00  0.1175E+04  0.1294E+04  0.1425E+04  0.1438E+04  0.1425E+04  0.1419E+04  0.1410E+04  0.1385E+04  0.1347E+04  0.1385E+04
 365.50  0.1434E+04  0.1484E+04  0.1444E+04  0.1497E+04  0.1561E+04  0.1592E+04  0.1571E+04  0.1529E+04  0.1513E+04  0.1535E+04
 366.00  0.1568E+04  0.1534E+04  0.1499E+04  0.1446E+04  0.1401E+04  0.1324E+04  0.1311E+04  0.1404E+04  0.1491E+04  0.1463E+04
 366.50  0.1390E+04  0.1381E+04  0.1426E+04  0.1442E+04  0.1387E+04  0.1289E+04  0.1209E+04  0.1186E+04  0.1237E+04  0.1322E+04
 367.00  0.1445E+04  0.1572E+04  0.1570E+04  0.1517E+04  0.1424E+04  0.1396E+04  0.1427E+04  0.1473E+04  0.1525E+04  0.1521E+04
 367.50  0.1460E+04  0.1316E+04  0.1200E+04  0.1196E+04  0.1275E+04  0.1281E+04  0.1165E+04  0.1104E+04  0.1153E+04  0.1206E+04
 368.00  0.1270E+04  0.1287E+04  0.1298E+04  0.1346E+04  0.1406E+04  0.1434E+04  0.1398E+04  0.1305E+04  0.1239E+04  0.1226E+04
 368.50  0.1188E+04  0.1091E+04  0.1028E+04  0.1052E+04  0.1118E+04  0.1181E+04  0.1272E+04  0.1406E+04  0.1519E+04  0.1587E+04
 369.00  0.1674E+04  0.1681E+04  0.1612E+04  0.1454E+04  0.1345E+04  0.1322E+04  0.1348E+04  0.1404E+04  0.1419E+04  0.1429E+04
 369.50  0.1429E+04  0.1415E+04  0.1421E+04  0.1465E+04  0.1535E+04  0.1605E+04  0.1682E+04  0.1703E+04  0.1662E+04  0.1603E+04
 370.00  0.1580E+04  0.1553E+04  0.1555E+04  0.1448E+04  0.1341E+04  0.1230E+04  0.1169E+04  0.1034E+04  0.9538E+03  0.1031E+04
 370.50  0.1105E+04  0.1110E+04  0.1130E+04  0.1155E+04  0.1124E+04  0.1058E+04  0.1078E+04  0.1214E+04  0.1362E+04  0.1446E+04
 371.00  0.1504E+04  0.1565E+04  0.1605E+04  0.1670E+04  0.1806E+04  0.1873E+04  0.1843E+04  0.1748E+04  0.1689E+04  0.1697E+04
 371.50  0.1720E+04  0.1734E+04  0.1691E+04  0.1532E+04  0.1361E+04  0.1107E+04  0.8051E+03  0.7811E+03  0.7817E+03  0.8148E+03
 372.00  0.8157E+03  0.8107E+03  0.8819E+03  0.1046E+04  0.1222E+04  0.1325E+04  0.1406E+04  0.1524E+04  0.1641E+04  0.1689E+04
 372.50  0.1561E+04  0.1282E+04  0.1099E+04  0.1147E+04  0.1336E+04  0.1503E+04  0.1555E+04  0.1491E+04  0.1380E+04  0.1347E+04
 373.00  0.1331E+04  0.1287E+04  0.1199E+04  0.1064E+04  0.9209E+03  0.7933E+03  0.6282E+03  0.6147E+03  0.6570E+03  0.6910E+03
 373.50  0.7247E+03  0.7646E+03  0.8230E+03  0.9333E+03  0.1105E+04  0.1213E+04  0.1314E+04  0.1435E+04  0.1519E+04  0.1564E+04
 374.00  0.1544E+04  0.1449E+04  0.1347E+04  0.1159E+04  0.1080E+04  0.1129E+04  0.1098E+04  0.1017E+04  0.8800E+03  0.8049E+03
 374.50  0.8752E+03  0.9807E+03  0.9965E+03  0.8883E+03  0.7312E+03  0.6077E+03  0.5726E+03  0.6666E+03  0.8569E+03  0.1066E+04
 375.00  0.1237E+04  0.1378E+04  0.1398E+04  0.1399E+04  0.1431E+04  0.1511E+04  0.1594E+04  0.1699E+04  0.1749E+04  0.1650E+04
 375.50  0.1476E+04  0.1277E+04  0.1078E+04  0.9043E+03  0.8110E+03  0.8613E+03  0.1003E+04  0.1216E+04  0.1297E+04  0.1288E+04
 376.00  0.1296E+04  0.1316E+04  0.1306E+04  0.1236E+04  0.1089E+04  0.1044E+04  0.1180E+04  0.1314E+04  0.1360E+04  0.1329E+04
 376.50  0.1198E+04  0.1045E+04  0.1011E+04  0.1113E+04  0.1260E+04  0.1355E+04  0.1345E+04  0.1247E+04  0.1169E+04  0.1177E+04
 377.00  0.1273E+04  0.1394E+04  0.1500E+04  0.1563E+04  0.1562E+04  0.1562E+04  0.1550E+04  0.1528E+04  0.1516E+04  0.1535E+04
 377.50  0.1582E+04  0.1609E+04  0.1620E+04  0.1579E+04  0.1550E+04  0.1566E+04  0.1638E+04  0.1772E+04  0.1817E+04  0.1796E+04
 378.00  0.1780E+04  0.1758E+04  0.1758E+04  0.1761E+04  0.1809E+04  0.1915E+04  0.1966E+04  0.1917E+04  0.1701E+04  0.1463E+04
 378.50  0.1362E+04  0.1340E+04  0.1348E+04  0.1361E+04  0.1358E+04  0.1312E+04  0.1237E+04  0.1211E+04  0.1266E+04  0.1384E+04
 379.00  0.1500E+04  0.1516E+04  0.1458E+04  0.1365E+04  0.1319E+04  0.1266E+04  0.1177E+04  0.1124E+04  0.1219E+04  0.1273E+04
 379.50  0.1274E+04  0.1184E+04  0.1059E+04  0.9639E+03  0.9365E+03  0.9434E+03  0.1024E+04  0.1195E+04  0.1389E+04  0.1427E+04
 380.00  0.1396E+04  0.1439E+04  0.1524E+04  0.1611E+04  0.1673E+04  0.1700E+04  0.1670E+04  0.1640E+04  0.1626E+04  0.1548E+04
 380.50  0.1426E+04  0.1329E+04  0.1325E+04  0.1428E+04  0.1537E+04  0.1613E+04  0.1684E+04  0.1748E+04  0.1760E+04  0.1743E+04
 381.00  0.1734E+04  0.1692E+04  0.1584E+04  0.1400E+04  0.1300E+04  0.1286E+04  0.1239E+04  0.1165E+04  0.1004E+04  0.9337E+03
 381.50  0.1063E+04  0.1255E+04  0.1390E+04  0.1485E+04  0.1500E+04  0.1384E+04  0.1159E+04  0.9092E+03  0.7824E+03  0.8276E+03
 382.00  0.9830E+03  0.1179E+04  0.1353E+04  0.1407E+04  0.1409E+04  0.1275E+04  0.1055E+04  0.9449E+03  0.8593E+03  0.7391E+03
 382.50  0.7232E+03  0.8005E+03  0.8223E+03  0.8026E+03  0.8433E+03  0.8475E+03  0.8288E+03  0.8856E+03  0.1046E+04  0.1030E+04
 383.00  0.9680E+03  0.8231E+03  0.7172E+03  0.6958E+03  0.7088E+03  0.6896E+03  0.6861E+03  0.7303E+03  0.8134E+03  0.8977E+03
 383.50  0.9574E+03  0.9766E+03  0.9505E+03  0.8389E+03  0.6674E+03  0.6716E+03  0.7375E+03  0.7487E+03  0.7074E+03  0.7244E+03
 384.00  0.9065E+03  0.1076E+04  0.1263E+04  0.1317E+04  0.1319E+04  0.1369E+04  0.1387E+04  0.1375E+04  0.1337E+04  0.1329E+04
 384.50  0.1320E+04  0.1365E+04  0.1462E+04  0.1529E+04  0.1532E+04  0.1458E+04  0.1290E+04  0.1132E+04  0.1099E+04  0.1169E+04
 385.00  0.1325E+04  0.1490E+04  0.1474E+04  0.1440E+04  0.1391E+04  0.1292E+04  0.1255E+04  0.1261E+04  0.1146E+04  0.1066E+04
 385.50  0.1109E+04  0.1197E+04  0.1223E+04  0.1166E+04  0.1045E+04  0.8941E+03  0.7599E+03  0.7428E+03  0.8013E+03  0.8925E+03
 386.00  0.1008E+04  0.1168E+04  0.1370E+04  0.1469E+04  0.1464E+04  0.1450E+04  0.1389E+04  0.1301E+04  0.1240E+04  0.1257E+04
 386.50  0.1286E+04  0.1279E+04  0.1248E+04  0.1259E+04  0.1243E+04  0.1205E+04  0.1140E+04  0.1056E+04  0.9471E+03  0.8610E+03
 387.00  0.8292E+03  0.8148E+03  0.8160E+03  0.8821E+03  0.9795E+03  0.1103E+04  0.1314E+04  0.1410E+04  0.1428E+04  0.1422E+04
 387.50  0.1385E+04  0.1323E+04  0.1172E+04  0.1010E+04  0.8595E+03  0.9283E+03  0.1050E+04  0.1121E+04  0.1177E+04  0.1168E+04
 388.00  0.1067E+04  0.9670E+03  0.8663E+03  0.9637E+03  0.1221E+04  0.1289E+04  0.1338E+04  0.1257E+04  0.1088E+04  0.9100E+03
 388.50  0.8546E+03  0.9448E+03  0.1042E+04  0.1040E+04  0.9700E+03  0.9269E+03  0.9954E+03  0.1114E+04  0.1247E+04  0.1368E+04
 389.00  0.1469E+04  0.1518E+04  0.1497E+04  0.1457E+04  0.1457E+04  0.1503E+04  0.1499E+04  0.1408E+04  0.1302E+04  0.1327E+04
 389.50  0.1491E+04  0.1642E+04  0.1617E+04  0.1570E+04  0.1556E+04  0.1503E+04  0.1395E+04  0.1357E+04  0.1433E+04  0.1546E+04
 390.00  0.1660E+04  0.1621E+04  0.1449E+04  0.1315E+04  0.1301E+04  0.1375E+04  0.1410E+04  0.1309E+04  0.1161E+04  0.1090E+04
 390.50  0.1160E+04  0.1312E+04  0.1461E+04  0.1562E+04  0.1633E+04  0.1668E+04  0.1657E+04  0.1592E+04  0.1548E+04  0.1594E+04
 391.00  0.1646E+04  0.1714E+04  0.1780E+04  0.1750E+04  0.1666E+04  0.1602E+04  0.1605E+04  0.1663E+04  0.1648E+04  0.1584E+04
 391.50  0.1522E+04  0.1536E+04  0.1585E+04  0.1566E+04  0.1507E+04  0.1490E+04  0.1450E+04  0.1358E+04  0.1230E+04  0.1144E+04
 392.00  0.1175E+04  0.1236E+04  0.1244E+04  0.1243E+04  0.1323E+04  0.1408E+04  0.1444E+04  0.1434E+04  0.1346E+04  0.1267E+04
 392.50  0.1256E+04  0.1221E+04  0.1102E+04  0.9681E+03  0.8773E+03  0.8266E+03  0.7843E+03  0.7218E+03  0.6724E+03  0.6265E+03
 393.00  0.5740E+03  0.5256E+03  0.4636E+03  0.4048E+03  0.3421E+03  0.3047E+03  0.3290E+03  0.3833E+03  0.4618E+03  0.5208E+03
 393.50  0.6259E+03  0.6878E+03  0.7329E+03  0.7867E+03  0.8414E+03  0.9267E+03  0.1041E+04  0.1121E+04  0.1165E+04  0.1192E+04
 394.00  0.1212E+04  0.1224E+04  0.1229E+04  0.1216E+04  0.1150E+04  0.1046E+04  0.9997E+03  0.1084E+04  0.1307E+04  0.1510E+04
 394.50  0.1534E+04  0.1537E+04  0.1488E+04  0.1418E+04  0.1366E+04  0.1372E+04  0.1443E+04  0.1539E+04  0.1626E+04  0.1689E+04
 395.00  0.1720E+04  0.1665E+04  0.1428E+04  0.1363E+04  0.1421E+04  0.1614E+04  0.1690E+04  0.1700E+04  0.1646E+04  0.1476E+04
 395.50  0.1423E+04  0.1437E+04  0.1466E+04  0.1500E+04  0.1545E+04  0.1611E+04  0.1675E+04  0.1684E+04  0.1529E+04  0.1228E+04
 396.00  0.1073E+04  0.9796E+03  0.9243E+03  0.9428E+03  0.9888E+03  0.1004E+04  0.1003E+04  0.9634E+03  0.8960E+03  0.7893E+03
 396.50  0.6855E+03  0.5908E+03  0.4950E+03  0.4087E+03  0.3496E+03  0.3154E+03  0.3322E+03  0.4038E+03  0.4827E+03  0.5917E+03
 397.00  0.6922E+03  0.7639E+03  0.8546E+03  0.9448E+03  0.9788E+03  0.1006E+04  0.1057E+04  0.1164E+04  0.1281E+04  0.1353E+04
 397.50  0.1382E+04  0.1406E+04  0.1520E+04  0.1578E+04  0.1640E+04  0.1723E+04  0.1791E+04  0.1866E+04  0.1924E+04  0.1942E+04
 398.00  0.1894E+04  0.1824E+04  0.1784E+04  0.1770E+04  0.1747E+04  0.1706E+04  0.1702E+04  0.1717E+04  0.1780E+04  0.1814E+04
 398.50  0.1725E+04  0.1648E+04  0.1708E+04  0.1820E+04  0.1912E+04  0.1978E+04  0.1925E+04  0.1852E+04  0.1806E+04  0.1829E+04
 399.00  0.1893E+04  0.1923E+04  0.1948E+04  0.1982E+04  0.1991E+04  0.1980E+04  0.1941E+04  0.1896E+04  0.1887E+04  0.1891E+04
 399.50  0.1887E+04  0.1826E+04  0.1747E+04  0.1715E+04  0.1712E+04  0.1811E+04  0.1972E+04  0.2095E+04  0.2160E+04  0.2114E+04
