     SUSIM SL2 low resolution (5.0nm)  Solar Irridance data.
     Irradiance values are given in milliwatts/m^2/nanomenters
     and are listed at 10nm intervals.  The wavelength given is
     the center wavelength of the 5.0nm triangular bandpass.
 
  wave     w+0.0       w+1.0       w+2.0       w+3.0       w+4.0       w+5.0       w+6.0       w+7.0       w+8.0       w+9.0
 
 110.00                          0.5096E-04 -0.2000E-03  0.7634E-03 -0.2894E-02  0.1348E-01  0.1618E+00  0.4449E+00  0.6943E+00
 120.00  0.8363E+00  0.8842E+00  0.8176E+00  0.6559E+00  0.4709E+00  0.2959E+00  0.1427E+00  0.5154E-01  0.2976E-01  0.3704E-01
 130.00  0.4640E-01  0.5409E-01  0.5877E-01  0.6040E-01  0.5800E-01  0.5215E-01  0.4666E-01  0.4336E-01  0.4223E-01  0.4293E-01
 140.00  0.4647E-01  0.4757E-01  0.4871E-01  0.5052E-01  0.5341E-01  0.5786E-01  0.6361E-01  0.6937E-01  0.7470E-01  0.8087E-01
 150.00  0.9010E-01  0.1032E+00  0.1184E+00  0.1341E+00  0.1489E+00  0.1594E+00  0.1653E+00  0.1693E+00  0.1742E+00  0.1827E+00
 160.00  0.1978E+00  0.2213E+00  0.2495E+00  0.2796E+00  0.3127E+00  0.3527E+00  0.4017E+00  0.4546E+00  0.5086E+00  0.5650E+00
 170.00  0.6255E+00  0.6932E+00  0.7714E+00  0.8644E+00  0.9728E+00  0.1095E+01  0.1234E+01  0.1396E+01  0.1570E+01  0.1734E+01
 180.00  0.1889E+01  0.2034E+01  0.2162E+01  0.2285E+01  0.2427E+01  0.2606E+01  0.2835E+01  0.3051E+01  0.3213E+01  0.3402E+01
 190.00  0.3646E+01  0.3906E+01  0.4185E+01  0.4506E+01  0.4864E+01  0.5265E+01  0.5703E+01  0.6133E+01  0.6550E+01  0.6874E+01
 200.00  0.7157E+01  0.7602E+01  0.8175E+01  0.8806E+01  0.9544E+01  0.1056E+02  0.1204E+02  0.1413E+02  0.1688E+02  0.2021E+02
 210.00  0.2387E+02  0.2725E+02  0.2993E+02  0.3189E+02  0.3345E+02  0.3490E+02  0.3634E+02  0.3805E+02  0.4008E+02  0.4228E+02
 220.00  0.4465E+02  0.4708E+02  0.4928E+02  0.5055E+02  0.5053E+02  0.4954E+02  0.4813E+02  0.4718E+02  0.4699E+02  0.4701E+02
 230.00  0.4711E+02  0.4725E+02  0.4702E+02  0.4639E+02  0.4580E+02  0.4545E+02  0.4525E+02  0.4520E+02  0.4575E+02  0.4728E+02
 240.00  0.4993E+02  0.5339E+02  0.5673E+02  0.5882E+02  0.5912E+02  0.5816E+02  0.5663E+02  0.5508E+02  0.5390E+02  0.5299E+02
 250.00  0.5324E+02  0.5516E+02  0.5792E+02  0.6222E+02  0.6968E+02  0.8022E+02  0.9200E+02  0.1028E+03  0.1107E+03  0.1157E+03
 260.00  0.1210E+03  0.1314E+03  0.1491E+03  0.1740E+03  0.2024E+03  0.2287E+03  0.2494E+03  0.2624E+03  0.2666E+03  0.2640E+03
 270.00  0.2574E+03  0.2475E+03  0.2351E+03  0.2232E+03  0.2139E+03  0.2074E+03  0.2027E+03  0.1968E+03  0.1899E+03  0.1884E+03
 280.00  0.1972E+03  0.2151E+03  0.2382E+03  0.2623E+03  0.2852E+03  0.3091E+03  0.3388E+03  0.3777E+03  0.4258E+03  0.4793E+03
 290.00  0.5284E+03  0.5622E+03  0.5782E+03  0.5817E+03  0.5774E+03  0.5669E+03  0.5521E+03  0.5368E+03  0.5237E+03  0.5151E+03
 300.00  0.5177E+03  0.5362E+03  0.5638E+03  0.5924E+03  0.6176E+03  0.6347E+03  0.6451E+03  0.6533E+03  0.6625E+03  0.6809E+03
 310.00  0.7063E+03  0.7239E+03  0.7331E+03  0.7449E+03  0.7535E+03  0.7528E+03  0.7556E+03  0.7665E+03  0.7752E+03  0.7784E+03
 320.00  0.7812E+03  0.7902E+03  0.8065E+03  0.8325E+03  0.8722E+03  0.9166E+03  0.9563E+03  0.9882E+03  0.1012E+04  0.1031E+04
 330.00  0.1035E+04  0.1021E+04  0.1005E+04  0.9956E+03  0.9782E+03  0.9571E+03  0.9527E+03  0.9617E+03  0.9694E+03  0.9833E+03
 340.00  0.1004E+04  0.1016E+04  0.1010E+04  0.9966E+03  0.9917E+03  0.9884E+03  0.9822E+03  0.9792E+03  0.9876E+03  0.1016E+04
 350.00  0.1040E+04  0.1047E+04  0.1066E+04  0.1097E+04  0.1105E+04  0.1085E+04  0.1068E+04  0.1062E+04  0.1054E+04  0.1041E+04
 360.00  0.1050E+04  0.1084E+04  0.1117E+04  0.1159E+04  0.1216E+04  0.1268E+04  0.1300E+04  0.1320E+04  0.1350E+04  0.1368E+04
 370.00  0.1346E+04  0.1308E+04  0.1283E+04  0.1266E+04  0.1239E+04  0.1228E+04  0.1261E+04  0.1309E+04  0.1338E+04  0.1351E+04
 380.00  0.1343E+04  0.1301E+04  0.1233E+04  0.1167E+04  0.1148E+04  0.1163E+04  0.1157E+04  0.1161E+04  0.1230E+04  0.1299E+04
 390.00  0.1299E+04  0.1279E+04  0.1269E+04  0.1238E+04  0.1188E+04  0.1177E+04  0.1251E+04  0.1346E+04  0.1408E+04  0.1518E+04
 400.00  0.1706E+04  0.1848E+04  0.1896E+04  0.1943E+04  0.1997E+04  0.1998E+04  0.1960E+04  0.1943E+04  0.1986E+04  0.2045E+04
