file SOLSTICE.FLX extraterrestrial solar irradiance  91-96
Wvl(nm) Irrad(W m-2 nm-1)
      119.500  4.87589e-05
      120.500  0.000151393
      121.500   0.00623000
      122.500  5.82613e-05
      123.500  3.83054e-05
      124.500  3.25071e-05
      125.500  2.79906e-05
      126.500  4.32115e-05
      127.500  2.20399e-05
      128.500  1.80034e-05
      129.500  2.08551e-05
      130.500  0.000155493
      131.500  2.87570e-05
      132.500  2.12974e-05
      133.500  0.000200728
      134.500  1.95729e-05
      135.500  4.58652e-05
      136.500  2.87841e-05
      137.500  3.06336e-05
      138.500  3.07977e-05
      139.500  7.85707e-05
      140.500  7.40627e-05
      141.500  4.39279e-05
      142.500  4.76772e-05
      143.500  5.57125e-05
      144.500  5.40059e-05
      145.500  5.80245e-05
      146.500  7.27516e-05
      147.500  8.60015e-05
      148.500  8.89058e-05
      149.500  8.11623e-05
      150.500  9.07980e-05
      151.500  9.77642e-05
      152.500  0.000120091
      153.500  0.000138593
      154.500  0.000234043
      155.500  0.000189377
      156.500  0.000194534
      157.500  0.000177855
      158.500  0.000175936
      159.500  0.000175642
      160.500  0.000198247
      161.500  0.000233718
      162.500  0.000265798
      163.500  0.000288192
      164.500  0.000312806
      165.500  0.000528570
      166.500  0.000354311
      167.500  0.000409032
      168.500  0.000467340
      169.500  0.000606945
      170.500  0.000705653
      171.500  0.000698339
      172.500  0.000755027
      173.500  0.000755924
      174.500  0.000928787
      175.500   0.00113658
      176.500   0.00122330
      177.500   0.00144975
      178.500   0.00162633
      179.500   0.00159446
      180.500   0.00192681
      181.500   0.00238535
      182.500   0.00224875
      183.500   0.00238751
      184.500   0.00208135
      185.500   0.00233990
      186.500   0.00272693
      187.500   0.00313539
      188.500   0.00332679
      189.500   0.00372447
      190.500   0.00386952
      191.500   0.00422355
      192.500   0.00448345
      193.500   0.00339888
      194.500   0.00559487
      195.500   0.00552677
      196.500   0.00609824
      197.500   0.00626468
      198.500   0.00630489
      199.500   0.00678346
      200.500   0.00743403
      201.500   0.00822313
      202.500   0.00812641
      203.500   0.00939193
      204.500    0.0104779
      205.500    0.0108633
      206.500    0.0111964
      207.500    0.0129423
      208.500    0.0148025
      209.500    0.0215665
      210.500    0.0286257
      211.500    0.0353241
      212.500    0.0321394
      213.500    0.0313297
      214.500    0.0433383
      215.500    0.0351007
      216.500    0.0331649
      217.500    0.0330130
      218.500    0.0462010
      219.500    0.0479031
      220.500    0.0498147
      221.500    0.0347273
      222.500    0.0496756
      223.500    0.0660422
      224.500    0.0595060
      225.500    0.0522692
      226.500    0.0386084
      227.500    0.0375269
      228.500    0.0548228
      229.500    0.0467173
      230.500    0.0547151
      231.500    0.0475962
      232.500    0.0532521
      233.500    0.0436965
      234.500    0.0345186
      235.500    0.0553538
      236.500    0.0450064
      237.500    0.0539299
      238.500    0.0376819
      239.500    0.0446276
      240.500    0.0397018
      241.500    0.0472521
      242.500    0.0733381
      243.500    0.0647120
      244.500    0.0633105
      245.500    0.0486689
      246.500    0.0481443
      247.500    0.0569416
      248.500    0.0440835
      249.500    0.0562282
      250.500    0.0589956
      251.500    0.0451949
      252.500    0.0392849
      253.500    0.0509147
      254.500    0.0560110
      255.500    0.0805422
      256.500     0.100423
      257.500     0.124268
      258.500     0.131602
      259.500     0.105781
      260.500    0.0857560
      261.500    0.0850999
      262.500     0.106615
      263.500     0.172088
      264.500     0.265992
      265.500     0.264053
      266.500     0.249317
      267.500     0.254019
      268.500     0.248655
      269.500     0.229959
      270.500     0.280930
      271.500     0.233451
      272.500     0.194782
      273.500     0.217208
      274.500     0.119127
      275.500     0.169572
      276.500     0.251943
      277.500     0.247767
      278.500     0.160107
      279.500    0.0723829
      280.500    0.0812653
      281.500     0.219562
      282.500     0.298790
      283.500     0.325679
      284.500     0.259722
      285.500     0.130334
      286.500     0.342225
      287.500     0.371399
      288.500     0.311486
      289.500     0.467194
      290.500     0.627133
      291.500     0.596550
      292.500     0.499252
      293.500     0.562544
      294.500     0.498550
      295.500     0.566192
      296.500     0.513235
      297.500     0.551335
      298.500     0.420750
      299.500     0.528800
      300.500     0.392392
      301.500     0.493293
      302.500     0.467178
      303.500     0.658971
      304.500     0.611660
      305.500     0.621724
      306.500     0.570751
      307.500     0.660975
      308.500     0.662851
      309.500     0.503299
      310.500     0.665129
      311.500     0.787856
      312.500     0.680327
      313.500     0.734557
      314.500     0.671182
      315.500     0.689701
      316.500     0.625147
      317.500     0.866435
      318.500     0.663530
      319.500     0.728464
      320.500     0.896240
      321.500     0.709120
      322.500     0.736998
      323.500     0.684846
      324.500     0.817643
      325.500     0.911457
      326.500      1.03473
      327.500      1.00045
      328.500     0.925981
      329.500      1.13220
      330.500      1.04124
      331.500      1.02664
      332.500     0.992547
      333.500     0.946753
      334.500      1.00736
      335.500      1.02310
      336.500     0.806426
      337.500     0.881065
      338.500     0.942299
      339.500     0.979210
      340.500      1.07503
      341.500     0.938542
      342.500      1.04078
      343.500      1.04034
      344.500     0.747835
      345.500      1.01797
      346.500     0.939376
      347.500     0.930344
      348.500     0.964410
      349.500     0.865423
      350.500      1.14095
      351.500      1.01417
      352.500     0.906370
      353.500      1.08837
      354.500      1.15320
      355.500      1.07767
      356.500     0.958729
      357.500     0.868653
      358.500     0.644196
      359.500      1.09934
      360.500      1.03697
      361.500     0.912243
      362.500      1.04286
      363.500     0.979479
      364.500      1.05472
      365.500      1.20421
      366.500      1.27671
      367.500      1.22793
      368.500      1.09084
      369.500      1.27768
      370.500      1.12743
      371.500      1.30471
      372.500      1.07087
      373.500     0.923769
      374.500     0.935547
      375.500      1.12706
      376.500      1.09864
      377.500      1.31885
      378.500      1.41238
      379.500      1.07494
      380.500      1.25597
      381.500      1.13966
      382.500     0.813566
      383.500     0.674118
      384.500     0.976642
      385.500      1.02439
      386.500      1.03183
      387.500      1.00576
      388.500     0.964405
      389.500      1.23056
      390.500      1.25692
      391.500      1.45849
      392.500      1.09619
      393.500     0.473425
      394.500      1.09938
      395.500      1.42224
      396.500     0.749655
      397.500     0.844543
      398.500      1.60340
      399.500      1.72084
      400.500      1.72390
      401.500      1.82649
      402.500      1.86313
      403.500      1.71520
      404.500      1.71943
      405.500      1.75268
      406.500      1.61758
      407.500      1.64639
      408.500      1.77340
      409.500      1.74565
      410.500      1.47322
      411.500      1.86764
      412.500      1.86845
      413.500      1.83918
      414.500      1.85416
      415.500      1.81042
      416.500      1.94146
      417.500      1.75830
      418.500      1.78306
      419.500      1.82383
      420.500      1.70450
