LOWTRAN solar irradiance from Judith Lean
Scaled and reordered (using SUNLEAN.BAS)
Wvl(nm) Irrad(W m-2 nm-1)
   200.000   7.4250E-03
   200.080   7.4440E-03
   200.160   7.4131E-03
   200.240   7.7065E-03
   200.320   8.0492E-03
   200.400   8.0178E-03
   200.480   7.8124E-03
   200.560   7.7564E-03
   200.640   8.3215E-03
   200.720   8.4141E-03
   200.800   8.0601E-03
   200.880   7.9298E-03
   200.960   7.9977E-03
   201.050   8.2634E-03
   201.130   8.2815E-03
   201.210   7.6326E-03
   201.290   8.0213E-03
   201.370   8.6807E-03
   201.450   8.8216E-03
   201.530   8.4452E-03
   201.610   8.2907E-03
   201.690   8.3086E-03
   201.780   8.6212E-03
   201.860   9.1297E-03
   201.940   9.5637E-03
   202.020   9.1884E-03
   202.100   9.0096E-03
   202.180   8.6599E-03
   202.270   8.1885E-03
   202.350   8.2307E-03
   202.430   8.8585E-03
   202.510   9.0708E-03
   202.590   8.2838E-03
   202.680   6.7434E-03
   202.760   7.0055E-03
   202.840   8.8227E-03
   202.920   9.4227E-03
   203.000   9.4635E-03
   203.090   9.3104E-03
   203.170   9.9811E-03
   203.250   1.0457E-02
   203.330   1.0183E-02
   203.420   9.1351E-03
   203.500   8.3550E-03
   203.580   8.7101E-03
   203.670   9.6915E-03
   203.750   1.0527E-02
   203.830   1.0542E-02
   203.920   1.0269E-02
   204.000   9.4196E-03
   204.080   8.9797E-03
   204.160   1.0004E-02
   204.250   1.0931E-02
   204.330   1.1640E-02
   204.420   1.1176E-02
   204.500   1.0402E-02
   204.580   1.0561E-02
   204.670   1.1578E-02
   204.750   1.1617E-02
   204.830   1.0773E-02
   204.920   1.0645E-02
   205.000   1.0993E-02
   205.090   1.1032E-02
   205.170   1.1213E-02
   205.250   1.1417E-02
   205.340   1.1669E-02
   205.420   1.1920E-02
   205.510   1.1626E-02
   205.590   1.0694E-02
   205.680   1.0378E-02
   205.760   1.1408E-02
   205.850   1.1352E-02
   205.930   1.0564E-02
   206.020   1.1498E-02
   206.100   1.2077E-02
   206.190   1.1479E-02
   206.270   1.0224E-02
   206.360   1.0474E-02
   206.440   1.1404E-02
   206.530   1.1957E-02
   206.610   1.1877E-02
   206.700   1.1516E-02
   206.780   1.2161E-02
   206.870   1.2455E-02
   206.950   1.2071E-02
   207.040   1.2014E-02
   207.130   1.2354E-02
   207.210   1.2810E-02
   207.300   1.2706E-02
   207.380   1.3044E-02
   207.470   1.3544E-02
   207.560   1.3765E-02
   207.640   1.4195E-02
   207.730   1.4670E-02
   207.810   1.4750E-02
   207.900   1.3928E-02
   207.990   1.3986E-02
   208.070   1.4644E-02
   208.160   1.4055E-02
   208.250   1.3536E-02
   208.330   1.3455E-02
   208.420   1.4020E-02
   208.510   1.3640E-02
   208.590   1.4479E-02
   208.680   1.6924E-02
   208.770   1.7093E-02
   208.860   1.7904E-02
   208.940   1.9287E-02
   209.030   1.7211E-02
   209.120   1.6556E-02
   209.210   1.8347E-02
   209.290   1.9565E-02
   209.380   2.3951E-02
   209.470   2.1743E-02
   209.560   1.9288E-02
   209.640   2.1797E-02
   209.730   2.4098E-02
   209.820   2.6576E-02
   209.910   2.6781E-02
   210.000   2.2427E-02
   210.080   2.0868E-02
   210.170   2.6940E-02
   210.260   3.4382E-02
   210.350   3.0285E-02
   210.440   2.0662E-02
   210.530   2.5947E-02
   210.610   3.6746E-02
   210.700   3.6264E-02
   210.790   3.4433E-02
   210.880   3.0357E-02
   210.970   2.1726E-02
   211.060   2.0249E-02
   211.150   2.6243E-02
   211.240   3.8322E-02
   211.330   3.8066E-02
   211.420   3.1098E-02
   211.510   2.6601E-02
   211.600   2.6355E-02
   211.690   3.8384E-02
   211.770   4.6155E-02
   211.860   4.0101E-02
   211.950   3.8286E-02
   212.040   4.8040E-02
   212.130   4.7777E-02
   212.220   3.7967E-02
   212.310   3.0392E-02
   212.400   2.0813E-02
   212.490   1.5037E-02
   212.590   1.8521E-02
   212.680   2.9847E-02
   212.770   3.6448E-02
   212.860   3.7300E-02
   212.950   3.7048E-02
   213.040   3.0406E-02
   213.130   2.6418E-02
   213.220   2.9915E-02
   213.310   2.9889E-02
   213.400   3.0962E-02
   213.490   2.8741E-02
   213.580   2.6525E-02
   213.680   3.2197E-02
   213.770   4.0922E-02
   213.860   3.7608E-02
   213.950   2.6652E-02
   214.040   2.6848E-02
   214.130   4.0565E-02
   214.220   5.0989E-02
   214.320   4.7897E-02
   214.410   4.8944E-02
   214.500   4.7163E-02
   214.590   3.9957E-02
   214.680   3.4281E-02
   214.780   3.3601E-02
   214.870   3.7905E-02
   214.960   4.3715E-02
   215.050   4.2380E-02
   215.150   3.2622E-02
   215.240   3.2810E-02
   215.330   3.9683E-02
   215.420   4.6975E-02
   215.520   4.4351E-02
   215.610   3.8505E-02
   215.700   3.2884E-02
   215.800   2.5125E-02
   215.890   2.1670E-02
   215.980   2.3795E-02
   216.080   3.4269E-02
   216.170   4.3014E-02
   216.260   4.0838E-02
   216.360   3.9735E-02
   216.450   3.7993E-02
   216.540   3.5828E-02
   216.640   2.7274E-02
   216.730   1.9479E-02
   216.830   2.5312E-02
   216.920   2.9328E-02
   217.010   2.8028E-02
   217.110   3.3944E-02
   217.200   3.6670E-02
   217.300   3.8545E-02
   217.390   3.4914E-02
   217.490   2.7696E-02
   217.580   2.6615E-02
   217.680   3.2079E-02
   217.770   2.7834E-02
   217.860   2.7178E-02
   217.960   4.2731E-02
   218.050   5.3420E-02
   218.150   5.5685E-02
   218.250   5.8365E-02
   218.340   5.4539E-02
   218.440   4.6527E-02
   218.530   4.6696E-02
   218.630   4.7492E-02
   218.720   3.0937E-02
   218.820   3.4878E-02
   218.910   4.0899E-02
   219.010   4.0029E-02
   219.110   4.4785E-02
   219.200   4.0583E-02
   219.300   5.0113E-02
   219.390   6.1703E-02
   219.490   5.3346E-02
   219.590   4.0441E-02
   219.680   3.5640E-02
   219.780   4.5546E-02
   219.880   5.7296E-02
   219.970   5.7658E-02
   220.070   4.2948E-02
   220.170   3.4245E-02
   220.260   4.9468E-02
   220.360   6.5487E-02
   220.460   6.3989E-02
   220.560   5.8382E-02
   220.650   5.4223E-02
   220.750   4.4325E-02
   220.850   3.7315E-02
   220.950   3.6668E-02
   221.040   3.0905E-02
   221.140   2.0326E-02
   221.240   2.5947E-02
   221.340   4.5724E-02
   221.430   4.5479E-02
   221.530   4.5235E-02
   221.630   3.4609E-02
   221.730   2.4205E-02
   221.830   2.8044E-02
   221.930   4.3045E-02
   222.020   5.1932E-02
   222.120   5.4724E-02
   222.220   5.3865E-02
   222.320   4.8152E-02
   222.420   4.9929E-02
   222.520   4.9884E-02
   222.620   4.8024E-02
   222.720   4.3344E-02
   222.820   4.4716E-02
   222.920   5.2122E-02
   223.020   4.9461E-02
   223.110   4.3190E-02
   223.210   5.5194E-02
   223.310   7.6199E-02
   223.410   7.7734E-02
   223.510   7.4662E-02
   223.610   7.6395E-02
   223.710   6.9733E-02
   223.810   5.8691E-02
   223.910   5.5647E-02
   224.010   6.5760E-02
   224.110   5.9728E-02
   224.220   5.1917E-02
   224.320   4.9684E-02
   224.420   4.6264E-02
   224.520   5.3761E-02
   224.620   6.2632E-02
   224.720   6.8319E-02
   224.820   6.9840E-02
   224.920   5.6336E-02
   225.020   5.2138E-02
   225.120   4.9920E-02
   225.230   5.4410E-02
   225.330   5.3770E-02
   225.430   4.6637E-02
   225.530   5.0331E-02
   225.630   4.5374E-02
   225.730   4.9455E-02
   225.840   5.1371E-02
   225.940   5.1716E-02
   226.040   4.0709E-02
   226.140   4.1650E-02
   226.240   4.8255E-02
   226.350   4.3332E-02
   226.450   3.6077E-02
   226.550   3.1953E-02
   226.650   3.2702E-02
   226.760   3.2089E-02
   226.860   3.0506E-02
   226.960   2.9313E-02
   227.070   2.9481E-02
   227.170   3.1392E-02
   227.270   3.4074E-02
   227.380   3.3656E-02
   227.480   3.5751E-02
   227.580   3.5911E-02
   227.690   3.9544E-02
   227.790   4.3748E-02
   227.890   4.5441E-02
   228.000   4.4437E-02
   228.100   5.1508E-02
   228.210   6.0678E-02
   228.310   5.7170E-02
   228.410   5.2134E-02
   228.520   6.1661E-02
   228.620   5.2230E-02
   228.730   3.7846E-02
   228.830   4.6405E-02
   228.940   4.6935E-02
   229.040   4.1555E-02
   229.150   4.2660E-02
   229.250   4.6426E-02
   229.360   4.9805E-02
   229.460   5.0329E-02
   229.570   5.7114E-02
   229.670   5.1185E-02
   229.780   3.2577E-02
   229.890   3.2168E-02
   229.990   3.7054E-02
   230.100   3.9286E-02
   230.200   4.6798E-02
   230.310   4.4870E-02
   230.410   4.4829E-02
   230.520   6.0595E-02
   230.630   7.3888E-02
   230.730   6.8936E-02
   230.840   5.8738E-02
   230.950   4.8185E-02
   231.050   3.9149E-02
   231.160   3.2563E-02
   231.270   3.1785E-02
   231.370   3.8107E-02
   231.480   5.6174E-02
   231.590   5.9105E-02
   231.700   5.2717E-02
   231.800   5.3971E-02
   231.910   5.0016E-02
   232.020   3.5852E-02
   232.130   3.8602E-02
   232.230   5.8777E-02
   232.340   7.6506E-02
   232.450   6.3295E-02
   232.560   4.0678E-02
   232.670   3.6207E-02
   232.770   4.3924E-02
   232.880   5.5684E-02
   232.990   5.3053E-02
   233.100   4.1225E-02
   233.210   3.4016E-02
   233.320   3.5821E-02
   233.430   4.5331E-02
   233.540   5.6290E-02
   233.640   5.3856E-02
   233.750   3.4040E-02
   233.860   2.9438E-02
   233.970   3.6899E-02
   234.080   4.4347E-02
   234.190   4.7223E-02
   234.300   3.4246E-02
   234.410   2.4204E-02
   234.520   2.7273E-02
   234.630   3.1606E-02
   234.740   3.1032E-02
   234.850   3.1547E-02
   234.960   4.6733E-02
   235.070   5.1937E-02
   235.180   5.8035E-02
   235.290   6.0871E-02
   235.400   4.9986E-02
   235.520   4.9398E-02
   235.630   6.1780E-02
   235.740   6.1721E-02
   235.850   4.5124E-02
   235.960   3.1072E-02
   236.070   3.5529E-02
   236.180   4.6610E-02
   236.290   5.6058E-02
   236.410   4.6343E-02
   236.520   3.9506E-02
   236.630   4.0183E-02
   236.740   4.0502E-02
   236.850   4.6880E-02
   236.970   5.4672E-02
   237.080   6.2626E-02
   237.190   6.1500E-02
   237.300   4.0488E-02
   237.420   3.7611E-02
   237.530   4.6083E-02
   237.640   6.1090E-02
   237.760   5.8732E-02
   237.870   4.2770E-02
   237.980   3.7256E-02
   238.100   2.7871E-02
   238.210   2.1853E-02
   238.320   2.5881E-02
   238.440   3.7818E-02
   238.550   5.0961E-02
   238.660   5.2668E-02
   238.780   3.9639E-02
   238.890   3.4870E-02
   239.010   5.3393E-02
   239.120   5.9463E-02
   239.230   5.7484E-02
   239.350   5.0272E-02
   239.460   2.8600E-02
   239.580   2.8921E-02
   239.690   4.0903E-02
   239.810   3.8082E-02
   239.920   3.8219E-02
   240.040   4.9116E-02
   240.150   4.7855E-02
   240.270   4.4172E-02
   240.380   3.0458E-02
   240.500   2.9045E-02
   240.620   3.1608E-02
   240.730   4.0206E-02
   240.850   4.7063E-02
   240.960   3.4789E-02
   241.080   3.0454E-02
   241.200   3.7473E-02
   241.310   3.8295E-02
   241.430   4.8037E-02
   241.550   5.5704E-02
   241.660   5.9417E-02
   241.780   6.3978E-02
   241.900   6.8018E-02
   242.010   7.3928E-02
   242.130   7.9997E-02
   242.250   6.9184E-02
   242.370   6.1456E-02
   242.480   6.6669E-02
   242.600   7.9008E-02
   242.720   8.0628E-02
   242.840   6.7493E-02
   242.950   7.3526E-02
   243.070   7.4808E-02
   243.190   6.4760E-02
   243.310   6.5035E-02
   243.430   6.1765E-02
   243.550   5.5973E-02
   243.660   6.4676E-02
   243.780   6.7979E-02
   243.900   5.9003E-02
   244.020   6.7342E-02
   244.140   7.8182E-02
   244.260   7.4753E-02
   244.380   6.5136E-02
   244.500   6.4069E-02
   244.620   6.0664E-02
   244.740   5.3258E-02
   244.860   5.2539E-02
   244.980   5.2488E-02
   245.100   4.7942E-02
   245.220   4.6232E-02
   245.340   4.6685E-02
   245.460   5.0456E-02
   245.580   4.9909E-02
   245.700   5.1848E-02
   245.820   5.4114E-02
   245.940   5.0424E-02
   246.060   4.6575E-02
   246.180   4.1910E-02
   246.310   4.2528E-02
   246.430   5.0225E-02
   246.550   5.2150E-02
   246.670   5.2920E-02
   246.790   5.7137E-02
   246.910   5.7409E-02
   247.040   5.7680E-02
   247.160   5.8932E-02
   247.280   4.7590E-02
   247.400   5.8979E-02
   247.520   6.4634E-02
   247.650   6.1635E-02
   247.770   5.6361E-02
   247.890   4.7518E-02
   248.020   5.0397E-02
   248.140   5.5381E-02
   248.260   4.0075E-02
   248.390   3.3066E-02
   248.510   4.5339E-02
   248.630   5.1118E-02
   248.760   4.1532E-02
   248.880   3.5679E-02
   249.000   3.3385E-02
   249.130   3.2224E-02
   249.250   4.7484E-02
   249.380   6.1587E-02
   249.500   7.2770E-02
   249.630   6.9328E-02
   249.750   7.0862E-02
   249.880   7.3513E-02
   250.000   7.4080E-02
   250.130   5.5944E-02
   250.250   5.9241E-02
   250.380   6.9870E-02
   250.500   6.7888E-02
   250.630   4.9989E-02
   250.750   4.7394E-02
   250.880   6.5142E-02
   251.000   6.7457E-02
   251.130   5.6131E-02
   251.260   5.4333E-02
   251.380   4.5258E-02
   251.510   3.9205E-02
   251.640   3.6639E-02
   251.760   3.9126E-02
   251.890   4.0033E-02
   252.020   4.5346E-02
   252.140   5.1120E-02
   252.270   4.1012E-02
   252.400   3.5633E-02
   252.530   4.2497E-02
   252.650   4.7781E-02
   252.780   3.9438E-02
   252.910   3.3457E-02
   253.040   4.2950E-02
   253.160   5.9602E-02
   253.290   5.7983E-02
   253.420   5.6678E-02
   253.550   5.4599E-02
   253.680   5.1901E-02
   253.810   5.5885E-02
   253.940   5.6449E-02
   254.070   5.9335E-02
   254.190   5.5715E-02
   254.320   6.4162E-02
   254.450   6.7340E-02
   254.580   6.0637E-02
   254.710   5.7030E-02
   254.840   5.7896E-02
   254.970   5.1838E-02
   255.100   7.1300E-02
   255.230   9.0109E-02
   255.360   8.6950E-02
   255.490   9.1763E-02
   255.620   8.4630E-02
   255.750   8.1486E-02
   255.890   9.3620E-02
   256.020   1.0070E-01
   256.150   9.0533E-02
   256.280   7.1256E-02
   256.410   7.4681E-02
   256.540   1.0150E-01
   256.670   1.2310E-01
   256.810   1.2055E-01
   256.940   1.2891E-01
   257.070   1.3800E-01
   257.200   1.3514E-01
   257.330   1.4769E-01
   257.470   1.3486E-01
   257.600   8.7556E-02
   257.730   8.1595E-02
   257.860   1.1610E-01
   258.000   1.5008E-01
   258.130   1.8160E-01
   258.260   1.5592E-01
   258.400   1.2551E-01
   258.530   1.0099E-01
   258.670   6.8154E-02
   258.800   9.8691E-02
   258.930   1.4229E-01
   259.070   1.7135E-01
   259.200   1.2488E-01
   259.340   1.0438E-01
   259.470   8.9120E-02
   259.610   1.1084E-01
   259.740   1.1902E-01
   259.880   8.0995E-02
   260.010   5.2067E-02
   260.150   9.1761E-02
   260.280   1.3816E-01
   260.420   1.3581E-01
   260.550   1.0974E-01
   260.690   7.5929E-02
   260.820   7.5262E-02
   260.960   1.0793E-01
   261.100   1.0591E-01
   261.230   7.1216E-02
   261.370   6.9093E-02
   261.510   9.2271E-02
   261.640   1.2636E-01
   261.780   1.0565E-01
   261.920   9.8979E-02
   262.050   1.3062E-01
   262.190   1.2277E-01
   262.330   1.3790E-01
   262.470   1.4661E-01
   262.610   1.1775E-01
   262.740   1.0212E-01
   262.880   9.6662E-02
   263.020   9.6272E-02
   263.160   7.3933E-02
   263.300   8.9578E-02
   263.440   1.4309E-01
   263.570   1.8137E-01
   263.710   2.1281E-01
   263.850   2.8010E-01
   263.990   2.8698E-01
   264.130   2.5227E-01
   264.270   2.9640E-01
   264.410   3.4901E-01
   264.550   2.8577E-01
   264.690   2.4836E-01
   264.830   2.1245E-01
   264.970   2.0083E-01
   265.110   2.2053E-01
   265.250   2.4020E-01
   265.390   2.6976E-01
   265.530   3.2053E-01
   265.670   3.0886E-01
   265.820   2.9296E-01
   265.960   2.8841E-01
   266.100   2.9234E-01
   266.240   2.5535E-01
   266.380   2.3816E-01
   266.520   2.5762E-01
   266.670   2.6016E-01
   266.810   2.7112E-01
   266.950   2.5259E-01
   267.090   2.6493E-01
   267.240   2.5765E-01
   267.380   2.3919E-01
   267.520   3.2556E-01
   267.670   3.0986E-01
   267.810   2.5236E-01
   267.950   2.2145E-01
   268.100   2.4904E-01
   268.240   2.7935E-01
   268.380   2.6378E-01
   268.530   2.5517E-01
   268.670   2.8538E-01
   268.820   2.7538E-01
   268.960   2.3500E-01
   269.110   2.3060E-01
   269.250   2.6484E-01
   269.400   2.7971E-01
   269.540   2.3950E-01
   269.690   2.1999E-01
   269.830   2.4310E-01
   269.980   2.9772E-01
   270.120   3.2206E-01
   270.270   2.8201E-01
   270.420   3.2137E-01
   270.560   3.2512E-01
   270.710   2.6609E-01
   270.860   2.6580E-01
   271.000   2.7232E-01
   271.150   2.6931E-01
   271.300   3.0977E-01
   271.440   2.4429E-01
   271.590   2.2234E-01
   271.740   2.5324E-01
   271.890   1.6233E-01
   272.030   1.2391E-01
   272.180   1.6468E-01
   272.330   2.0225E-01
   272.480   1.9665E-01
   272.630   2.1661E-01
   272.780   2.0697E-01
   272.930   2.8864E-01
   273.070   3.0173E-01
   273.220   2.7193E-01
   273.370   2.2346E-01
   273.520   2.0718E-01
   273.670   1.7758E-01
   273.820   1.5604E-01
   273.970   1.4788E-01
   274.120   1.5304E-01
   274.270   1.2895E-01
   274.420   1.1632E-01
   274.570   1.5784E-01
   274.730   1.2441E-01
   274.880   1.3500E-01
   275.030   1.1052E-01
   275.180   1.9149E-01
   275.330   2.4008E-01
   275.480   1.8184E-01
   275.630   1.2991E-01
   275.790   2.1168E-01
   275.940   3.0995E-01
   276.090   2.8206E-01
   276.240   2.2802E-01
   276.400   2.6311E-01
   276.550   3.1643E-01
   276.700   2.7428E-01
   276.850   2.4658E-01
   277.010   2.5934E-01
   277.160   2.8639E-01
   277.320   2.8087E-01
   277.470   2.9874E-01
   277.620   2.5170E-01
   277.780   2.1514E-01
   277.930   1.7865E-01
   278.090   1.7199E-01
   278.240   1.7954E-01
   278.400   1.7547E-01
   278.550   1.8688E-01
   278.710   1.7766E-01
   278.860   1.4274E-01
   279.020   1.1946E-01
   279.170   1.0021E-01
   279.330   8.0487E-02
   279.490   7.5276E-02
   279.640   7.7750E-02
   279.800   6.4634E-02
   279.960   7.7831E-02
   280.110   7.5832E-02
   280.270   7.8421E-02
   280.430   7.6171E-02
   280.580   9.8060E-02
   280.740   1.2815E-01
   280.900   1.6222E-01
   281.060   1.8103E-01
   281.210   1.8083E-01
   281.370   2.1473E-01
   281.530   2.7378E-01
   281.690   2.6591E-01
   281.850   2.8450E-01
   282.010   3.1813E-01
   282.170   3.1902E-01
   282.330   3.3623E-01
   282.490   3.4462E-01
   282.650   3.1419E-01
   282.810   3.4009E-01
   282.970   3.7717E-01
   283.130   3.8298E-01
   283.290   3.7383E-01
   283.450   3.5971E-01
   283.610   2.9465E-01
   283.770   3.7256E-01
   283.930   3.7337E-01
   284.090   3.3578E-01
   284.250   3.4035E-01
   284.410   2.9422E-01
   284.580   2.8524E-01
   284.740   2.2571E-01
   284.900   1.6016E-01
   285.060   1.0042E-01
   285.230   6.2075E-02
   285.390   9.6260E-02
   285.550   1.5575E-01
   285.710   2.1193E-01
   285.880   2.7409E-01
   286.040   3.6055E-01
   286.200   3.7479E-01
   286.370   3.9265E-01
   286.530   4.0925E-01
   286.700   3.7958E-01
   286.860   3.4026E-01
   287.030   4.1027E-01
   287.190   4.9225E-01
   287.360   4.3476E-01
   287.520   4.0644E-01
   287.690   3.8664E-01
   287.850   3.5361E-01
   288.020   2.5436E-01
   288.180   1.6737E-01
   288.350   3.0068E-01
   288.520   4.5410E-01
   288.680   4.5597E-01
   288.850   4.4466E-01
   289.020   4.4534E-01
   289.180   4.5440E-01
   289.350   4.5745E-01
   289.520   5.2850E-01
   289.690   5.9105E-01
   289.860   5.9870E-01
   290.020   7.0381E-01
   290.190   6.6618E-01
   290.360   7.2234E-01
   290.530   7.2506E-01
   290.700   6.5795E-01
   290.870   6.2409E-01
   291.040   6.1982E-01
   291.210   6.7570E-01
   291.380   6.9612E-01
   291.550   5.9060E-01
   291.720   5.9814E-01
   291.890   6.0096E-01
   292.060   6.2253E-01
   292.230   6.0892E-01
   292.400   5.2985E-01
   292.570   5.0002E-01
   292.740   5.1110E-01
   292.910   5.0934E-01
   293.080   6.8337E-01
   293.260   6.8490E-01
   293.430   6.7015E-01
   293.600   5.5684E-01
   293.770   4.2293E-01
   293.940   5.2197E-01
   294.120   5.4216E-01
   294.290   6.1542E-01
   294.460   5.8356E-01
   294.640   6.0822E-01
   294.810   3.7739E-01
   294.990   4.6543E-01
   295.160   6.7264E-01
   295.330   5.8357E-01
   295.510   5.9090E-01
   295.680   5.7990E-01
   295.860   6.6604E-01
   296.030   6.1961E-01
   296.210   7.0322E-01
   296.380   6.4660E-01
   296.560   3.9796E-01
   296.740   3.7591E-01
   296.910   4.4466E-01
   297.090   4.6453E-01
   297.270   4.5379E-01
   297.440   5.8098E-01
   297.620   6.9092E-01
   297.800   7.7467E-01
   297.970   6.0819E-01
   298.150   4.5110E-01
   298.330   3.5393E-01
   298.510   3.2770E-01
   298.690   4.1922E-01
   298.860   5.4971E-01
   299.040   6.8771E-01
   299.220   6.0536E-01
   299.400   4.4734E-01
   299.580   5.1031E-01
   299.760   6.5994E-01
   299.940   4.4018E-01
   300.120   2.9976E-01
   300.300   3.4154E-01
   300.480   5.3163E-01
   300.660   4.7347E-01
   300.840   3.7787E-01
   301.020   5.1206E-01
   301.200   5.5773E-01
   301.390   5.8569E-01
   301.570   5.7288E-01
   301.750   4.6676E-01
   301.930   3.3018E-01
   302.110   2.9143E-01
   302.300   5.8435E-01
   302.480   5.2681E-01
   302.660   5.4473E-01
   302.850   7.6213E-01
   303.030   6.5993E-01
   303.210   7.3527E-01
   303.400   8.0282E-01
   303.580   7.3783E-01
   303.770   4.9743E-01
   303.950   6.4836E-01
   304.140   5.7298E-01
   304.320   6.6406E-01
   304.510   7.6787E-01
   304.690   5.8382E-01
   304.880   6.1538E-01
   305.060   7.5217E-01
   305.250   8.4784E-01
   305.440   6.7959E-01
   305.620   6.4022E-01
   305.810   4.0526E-01
   306.000   5.1370E-01
   306.180   7.6481E-01
   306.370   6.6586E-01
   306.560   6.1077E-01
   306.750   5.4626E-01
   306.940   7.4302E-01
   307.130   7.6013E-01
   307.310   7.2320E-01
   307.500   6.6626E-01
   307.690   7.2670E-01
   307.880   7.2897E-01
   308.070   7.1121E-01
   308.260   6.1142E-01
   308.450   7.9775E-01
   308.640   7.7472E-01
   308.830   6.6158E-01
   309.020   6.0841E-01
   309.210   4.6019E-01
   309.410   5.1916E-01
   309.600   6.2910E-01
   309.790   5.5643E-01
   309.980   4.3710E-01
   310.170   4.2720E-01
   310.370   7.5264E-01
   310.560   8.3673E-01
   310.750   9.2268E-01
   310.950   9.1843E-01
   311.140   8.9456E-01
   311.330   9.0789E-01
   311.530   8.7997E-01
   311.720   7.5744E-01
   311.920   6.7940E-01
   312.110   6.6521E-01
   312.300   7.7819E-01
   312.500   7.5162E-01
   312.700   7.5886E-01
   312.890   7.8855E-01
   313.090   7.6512E-01
   313.280   7.3971E-01
   313.480   7.3675E-01
   313.680   8.3035E-01
   313.870   9.2979E-01
   314.070   9.0632E-01
   314.270   7.5230E-01
   314.470   4.7326E-01
   314.660   6.6052E-01
   314.860   7.9990E-01
   315.060   8.2408E-01
   315.260   8.1801E-01
   315.460   7.8582E-01
   315.660   6.6339E-01
   315.860   4.7812E-01
   316.060   5.2057E-01
   316.260   6.7288E-01
   316.460   7.2495E-01
   316.660   7.6293E-01
   316.860   7.6296E-01
   317.060   9.2613E-01
   317.260   1.0034E+00
   317.460   9.2974E-01
   317.660   9.7513E-01
   317.860   6.9776E-01
   318.070   5.7430E-01
   318.270   6.2491E-01
   318.470   7.1975E-01
   318.670   7.8481E-01
   318.880   9.1756E-01
   319.080   7.6022E-01
   319.280   5.8758E-01
   319.490   7.2497E-01
   319.690   7.6710E-01
   319.900   8.8631E-01
   320.100   8.5590E-01
   320.310   9.2108E-01
   320.510   9.8317E-01
   320.720   9.6150E-01
   320.920   7.8452E-01
   321.130   6.5552E-01
   321.340   6.2465E-01
   321.540   7.2251E-01
   321.750   8.2397E-01
   321.960   9.5604E-01
   322.160   8.5461E-01
   322.370   8.2079E-01
   322.580   7.4958E-01
   322.790   6.4880E-01
   323.000   6.4509E-01
   323.210   8.0795E-01
   323.420   7.2851E-01
   323.620   7.1515E-01
   323.830   7.8765E-01
   324.040   8.6282E-01
   324.250   8.7311E-01
   324.460   9.0143E-01
   324.680   8.9362E-01
   324.890   7.8919E-01
   325.100   8.3074E-01
   325.310   8.7880E-01
   325.520   1.0287E+00
   325.730   1.0839E+00
   325.950   1.1295E+00
   326.160   1.0998E+00
   326.370   9.7636E-01
   326.580   1.0501E+00
   326.800   1.1143E+00
   327.010   1.0006E+00
   327.230   1.0273E+00
   327.440   1.0726E+00
   327.650   1.0060E+00
   327.870   9.6746E-01
   328.080   9.8477E-01
   328.300   9.8348E-01
   328.520   9.2289E-01
   328.730   8.4672E-01
   328.950   1.0998E+00
   329.160   1.1352E+00
   329.380   1.1982E+00
   329.600   1.1875E+00
   329.820   1.1951E+00
   330.030   1.2945E+00
   330.250   1.0819E+00
   330.470   9.5229E-01
   330.690   9.0806E-01
   330.910   1.0685E+00
   331.130   1.0488E+00
   331.350   9.4727E-01
   331.560   1.0188E+00
   331.790   1.0901E+00
   332.010   1.0524E+00
   332.230   9.0601E-01
   332.450   1.0315E+00
   332.670   1.0572E+00
   332.890   9.4752E-01
   333.110   1.0454E+00
   333.330   1.0170E+00
   333.560   8.1611E-01
   333.780   9.4248E-01
   334.000   9.9501E-01
   334.220   1.0026E+00
   334.450   1.1175E+00
   334.670   1.0624E+00
   334.900   8.4882E-01
   335.120   1.0774E+00
   335.350   1.1026E+00
   335.570   1.1545E+00
   335.800   9.0459E-01
   336.020   5.6328E-01
   336.250   8.5882E-01
   336.470   1.0688E+00
   336.700   8.6357E-01
   336.930   7.2674E-01
   337.150   7.3456E-01
   337.380   8.9610E-01
   337.610   1.1230E+00
   337.840   9.4625E-01
   338.070   8.1548E-01
   338.290   9.6991E-01
   338.520   1.0646E+00
   338.750   1.0109E+00
   338.980   1.0791E+00
   339.210   8.6386E-01
   339.440   9.2864E-01
   339.670   1.1007E+00
   339.900   1.2031E+00
   340.140   1.2015E+00
   340.370   1.0790E+00
   340.600   1.0258E+00
   340.830   9.7274E-01
   341.060   1.0574E+00
   341.300   9.1000E-01
   341.530   8.9161E-01
   341.760   1.0702E+00
   342.000   1.1970E+00
   342.230   1.0331E+00
   342.470   1.0061E+00
   342.700   1.0388E+00
   342.940   1.2244E+00
   343.170   1.1378E+00
   343.410   1.0600E+00
   343.640   1.0839E+00
   343.880   9.0484E-01
   344.120   6.0634E-01
   344.350   6.8731E-01
   344.590   8.3542E-01
   344.830   9.8397E-01
   345.070   1.1254E+00
   345.300   1.0064E+00
   345.540   1.1474E+00
   345.780   9.9528E-01
   346.020   8.5191E-01
   346.260   9.6750E-01
   346.500   1.0744E+00
   346.740   1.0813E+00
   346.980   1.1628E+00
   347.220   1.0285E+00
   347.460   8.3657E-01
   347.710   8.4368E-01
   347.950   1.0490E+00
   348.190   9.8981E-01
   348.430   9.1430E-01
   348.680   1.0858E+00
   348.920   8.9532E-01
   349.160   8.4486E-01
   349.410   9.5835E-01
   349.650   8.5068E-01
   349.900   1.0782E+00
   350.140   1.2072E+00
   350.390   1.2462E+00
   350.630   1.1062E+00
   350.880   1.1209E+00
   351.120   1.0788E+00
   351.370   1.0287E+00
   351.620   9.6251E-01
   351.860   9.1270E-01
   352.110   8.7915E-01
   352.360   8.6986E-01
   352.610   8.9276E-01
   352.860   9.4772E-01
   353.110   1.0186E+00
   353.360   1.0812E+00
   353.610   1.1277E+00
   353.860   1.1500E+00
   354.110   1.1564E+00
   354.360   1.1468E+00
   354.610   1.1292E+00
   354.860   1.1118E+00
   355.110   1.0943E+00
   355.370   1.0769E+00
   355.620   1.0438E+00
   355.870   1.0028E+00
   356.130   9.6984E-01
   356.380   9.4484E-01
   356.630   9.4349E-01
   356.890   9.4214E-01
   357.140   9.4080E-01
   357.400   9.0814E-01
   357.650   8.3648E-01
   357.910   7.3927E-01
   358.170   6.5402E-01
   358.420   6.2740E-01
   358.680   6.9257E-01
   358.940   8.3051E-01
   359.200   9.9208E-01
   359.450   1.1145E+00
   359.710   1.1593E+00
   359.970   1.1344E+00
   360.230   1.0635E+00
   360.490   9.8497E-01
   360.750   9.1439E-01
   361.010   8.7471E-01
   361.270   8.6579E-01
   361.530   9.0279E-01
   361.790   9.8552E-01
   362.060   1.0756E+00
   362.320   1.1503E+00
   362.580   1.1714E+00
   362.840   1.1317E+00
   363.110   1.0618E+00
   363.370   9.9213E-01
   363.640   9.4531E-01
   363.900   9.2883E-01
   364.170   9.5010E-01
   364.430   1.0014E+00
   364.700   1.0676E+00
   364.960   1.1487E+00
   365.230   1.2145E+00
   365.500   1.2651E+00
   365.760   1.2782E+00
   366.030   1.2763E+00
   366.300   1.2595E+00
   366.570   1.2503E+00
   366.840   1.2484E+00
   367.110   1.2466E+00
   367.380   1.2299E+00
   367.650   1.1911E+00
   367.920   1.1377E+00
   368.190   1.0917E+00
   368.460   1.0901E+00
   368.730   1.1474E+00
   369.000   1.2338E+00
   369.280   1.3053E+00
   369.550   1.3254E+00
   369.820   1.2649E+00
   370.100   1.1681E+00
   370.370   1.0935E+00
   370.640   1.0919E+00
   370.920   1.1557E+00
   371.200   1.2411E+00
   371.470   1.2972E+00
   371.750   1.2953E+00
   372.020   1.2283E+00
   372.300   1.1399E+00
   372.580   1.0446E+00
   372.860   9.5669E-01
   373.130   8.9780E-01
   373.410   8.5343E-01
   373.690   8.2351E-01
   373.970   8.1513E-01
   374.250   8.3533E-01
   374.530   8.9111E-01
   374.810   9.6808E-01
   375.090   1.0519E+00
   375.380   1.1213E+00
   375.660   1.1480E+00
   375.940   1.1392E+00
   376.220   1.1163E+00
   376.510   1.1075E+00
   376.790   1.1340E+00
   377.070   1.1886E+00
   377.360   1.2570E+00
   377.640   1.3252E+00
   377.930   1.3723E+00
   378.210   1.3842E+00
   378.500   1.3402E+00
   378.790   1.2336E+00
   379.080   1.1065E+00
   379.360   1.0214E+00
   379.650   1.0199E+00
   379.940   1.1015E+00
   380.230   1.2105E+00
   380.520   1.2846E+00
   380.810   1.2964E+00
   381.100   1.2394E+00
   381.390   1.1412E+00
   381.680   1.0297E+00
   381.970   9.1157E-01
   382.260   8.0753E-01
   382.560   7.2430E-01
   382.850   6.6247E-01
   383.140   6.4306E-01
   383.440   6.7541E-01
   383.730   7.6062E-01
   384.020   8.8151E-01
   384.320   9.8171E-01
   384.620   1.0343E+00
   384.910   1.0192E+00
   385.210   9.8393E-01
   385.510   9.6222E-01
   385.800   9.7418E-01
   386.100   1.0196E+00
   386.400   1.0582E+00
   386.700   1.0700E+00
   387.000   1.0483E+00
   387.300   1.0000E+00
   387.600   9.5187E-01
   387.900   9.1051E-01
   388.200   8.9583E-01
   388.500   9.1432E-01
   388.800   9.8566E-01
   389.110   1.0832E+00
   389.410   1.1936E+00
   389.710   1.2971E+00
   390.020   1.3740E+00
   390.320   1.4375E+00
   390.630   1.4680E+00
   390.930   1.4723E+00
   391.240   1.4504E+00
   391.540   1.3829E+00
   391.850   1.2895E+00
   392.160   1.1509E+00
   392.460   9.7385E-01
   392.770   7.7785E-01
   393.080   5.9607E-01
   393.390   5.0402E-01
   393.700   5.5161E-01
   394.010   7.2788E-01
   394.320   9.6469E-01
   394.630   1.1943E+00
   394.940   1.3655E+00
   395.260   1.4210E+00
   395.570   1.3293E+00
   395.880   1.0975E+00
   396.200   8.3455E-01
   396.510   6.6149E-01
   396.830   6.6679E-01
   397.140   8.0522E-01
   397.460   1.0128E+00
   397.770   1.2072E+00
   398.090   1.3756E+00
   398.410   1.5057E+00
   398.720   1.5914E+00
   399.040   1.6391E+00
   399.360   1.6553E+00
   399.680   1.6526E+00
   400.000   1.6437E+00
   400.320   1.6411E+00
   400.640   1.6696E+00
   400.960   1.7167E+00
   401.280   1.7699E+00
   401.610   1.8104E+00
   401.930   1.8261E+00
   402.250   1.8232E+00
   402.580   1.7955E+00
   402.900   1.7495E+00
   403.230   1.7037E+00
   403.550   1.6518E+00
   403.880   1.6185E+00
   404.200   1.6036E+00
   404.530   1.6071E+00
   404.860   1.6289E+00
   405.190   1.6507E+00
   405.520   1.6723E+00
   405.840   1.6757E+00
   406.170   1.6608E+00
   406.500   1.6218E+00
   406.830   1.5769E+00
   407.170   1.5381E+00
   407.500   1.5537E+00
   407.830   1.6293E+00
   408.160   1.7407E+00
   408.500   1.8218E+00
   408.830   1.8368E+00
   409.170   1.7919E+00
   409.500   1.7055E+00
   409.840   1.6015E+00
   410.170   1.5216E+00
   410.510   1.5132E+00
   410.850   1.5937E+00
   411.180   1.7212E+00
   411.520   1.8187E+00
   411.860   1.8511E+00
   412.200   1.8245E+00
   412.540   1.7921E+00
   412.880   1.7716E+00
   413.220   1.7628E+00
   413.560   1.7599E+00
   413.910   1.7570E+00
   414.250   1.7482E+00
   414.590   1.7395E+00
   414.940   1.7250E+00
   415.280   1.7279E+00
   415.630   1.7540E+00
   415.970   1.8089E+00
   416.320   1.8405E+00
   416.670   1.8259E+00
   417.010   1.7654E+00
   417.360   1.6935E+00
   417.710   1.6563E+00
   418.060   1.6593E+00
   418.410   1.6794E+00
   418.760   1.6994E+00
   419.110   1.7022E+00
   419.460   1.7050E+00
   419.820   1.7135E+00
   420.170   1.7333E+00
   420.520   1.7643E+00
   420.880   1.8009E+00
   421.230   1.8148E+00
   421.590   1.7836E+00
   421.940   1.7019E+00
   422.300   1.6205E+00
   422.650   1.5898E+00
   423.010   1.6263E+00
   423.370   1.6905E+00
   423.730   1.7433E+00
   424.090   1.7737E+00
   424.450   1.7707E+00
   424.810   1.7511E+00
   425.170   1.7204E+00
   425.530   1.7009E+00
   425.890   1.7035E+00
   426.260   1.7062E+00
   426.620   1.6868E+00
   426.990   1.6400E+00
   427.350   1.5879E+00
   427.720   1.5633E+00
   428.080   1.5716E+00
   428.450   1.5852E+00
   428.820   1.5934E+00
   429.180   1.5581E+00
   429.550   1.4524E+00
   429.920   1.2768E+00
   430.290   1.1558E+00
   430.660   1.2023E+00
   431.030   1.4156E+00
   431.410   1.6388E+00
   431.780   1.7272E+00
   432.150   1.6974E+00
   432.530   1.6571E+00
   432.900   1.6702E+00
   433.280   1.7099E+00
   433.650   1.7335E+00
   434.030   1.7146E+00
   434.400   1.6851E+00
   434.780   1.6664E+00
   435.160   1.6846E+00
   435.540   1.7396E+00
   435.920   1.8208E+00
   436.300   1.9017E+00
   436.680   1.9403E+00
   437.060   1.9108E+00
   437.450   1.8238E+00
   437.830   1.7006E+00
   438.210   1.5987E+00
   438.600   1.5907E+00
   438.980   1.6917E+00
   439.370   1.8027E+00
   439.750   1.8150E+00
   440.140   1.7602E+00
   440.530   1.7262E+00
   440.920   1.7798E+00
   441.310   1.8845E+00
   441.700   1.9683E+00
   442.090   1.9955E+00
   442.480   1.9869E+00
   442.870   1.9477E+00
   443.260   1.9188E+00
   443.660   1.9255E+00
   444.050   1.9576E+00
   444.440   1.9744E+00
   444.840   1.9355E+00
   445.240   1.8665E+00
   445.630   1.8229E+00
   446.030   1.8297E+00
   446.430   1.8866E+00
   446.830   1.9734E+00
   447.230   2.0499E+00
   447.630   2.0762E+00
   448.030   2.0376E+00
   448.430   1.9892E+00
   448.830   1.9757E+00
   449.240   2.0019E+00
   449.640   2.0527E+00
   450.050   2.1033E+00
   450.450   2.1439E+00
   450.860   2.1597E+00
   451.260   2.1410E+00
   451.670   2.0833E+00
   452.080   2.0061E+00
   452.490   1.9536E+00
   452.900   1.9452E+00
   453.310   1.9660E+00
   453.720   1.9770E+00
   454.130   1.9832E+00
   454.550   1.9844E+00
   454.960   2.0049E+00
   455.370   2.0302E+00
   455.790   2.0506E+00
   456.200   2.0709E+00
   456.620   2.0911E+00
   457.040   2.1112E+00
   457.460   2.1026E+00
   457.880   2.0558E+00
   458.300   1.9997E+00
   458.720   1.9722E+00
   459.140   1.9876E+00
   459.560   2.0171E+00
   459.980   2.0370E+00
   460.410   2.0427E+00
   460.830   2.0484E+00
   461.250   2.0540E+00
   461.680   2.0690E+00
   462.110   2.0933E+00
   462.530   2.1081E+00
   462.960   2.0902E+00
   463.390   2.0537E+00
   463.820   2.0127E+00
   464.250   1.9858E+00
   464.680   1.9960E+00
   465.120   2.0339E+00
   465.550   2.0393E+00
   465.980   1.9849E+00
   466.420   1.9352E+00
   466.850   1.9500E+00
   467.290   1.9967E+00
   467.730   2.0250E+00
   468.160   2.0121E+00
   468.600   1.9992E+00
   469.040   2.0045E+00
   469.480   1.9917E+00
   469.920   1.9381E+00
   470.370   1.8938E+00
   470.810   1.9128E+00
   471.250   1.9813E+00
   471.700   2.0405E+00
   472.140   2.0546E+00
   472.590   2.0417E+00
   473.040   2.0110E+00
   473.480   1.9983E+00
   473.930   2.0168E+00
   474.380   2.0485E+00
   474.830   2.0579E+00
   475.290   2.0363E+00
   475.740   1.9971E+00
   476.190   1.9624E+00
   476.640   1.9807E+00
   477.100   2.0385E+00
   477.550   2.0740E+00
   478.010   2.0482E+00
   478.470   2.0181E+00
   478.930   2.0360E+00
   479.390   2.0713E+00
   479.850   2.0716E+00
   480.310   2.0460E+00
   480.770   2.0550E+00
   481.230   2.0813E+00
   481.700   2.0859E+00
   482.160   2.0561E+00
   482.630   2.0264E+00
   483.090   2.0225E+00
   483.560   2.0228E+00
   484.030   2.0061E+00
   484.500   1.9724E+00
   484.970   1.9261E+00
   485.440   1.8460E+00
   485.910   1.7280E+00
   486.380   1.6444E+00
   486.850   1.6791E+00
   487.330   1.7895E+00
   487.800   1.8785E+00
   488.280   1.9126E+00
   488.760   1.9256E+00
   489.240   1.9469E+00
   489.720   1.9806E+00
   490.200   2.0101E+00
   490.680   1.9937E+00
   491.160   1.9400E+00
   491.640   1.8990E+00
   492.130   1.8994E+00
   492.610   1.8956E+00
   493.100   1.8795E+00
   493.580   1.9128E+00
   494.070   2.0032E+00
   494.560   2.0524E+00
   495.050   1.9953E+00
   495.540   1.9384E+00
   496.030   1.9590E+00
   496.520   2.0200E+00
   497.020   2.0484E+00
   497.510   2.0160E+00
   498.010   1.9314E+00
   498.500   1.8792E+00
   499.000   1.9197E+00
   499.500   1.9679E+00
   500.000   1.9360E+00
   500.500   1.8643E+00
   501.000   1.8207E+00
   501.500   1.8210E+00
   502.010   1.8531E+00
   502.510   1.9008E+00
   503.020   1.9366E+00
   503.520   1.9327E+00
   504.030   1.8933E+00
   504.540   1.8817E+00
   505.050   1.9406E+00
   505.560   1.9954E+00
   506.070   1.9952E+00
   506.590   1.9600E+00
   507.100   1.9249E+00
   507.610   1.9133E+00
   508.130   1.9171E+00
   508.650   1.9248E+00
   509.160   1.9209E+00
   509.680   1.9247E+00
   510.200   1.9362E+00
   510.730   1.9706E+00
   511.250   2.0010E+00
   511.770   1.9701E+00
   512.300   1.9013E+00
   512.820   1.8594E+00
   513.350   1.8632E+00
   513.870   1.8669E+00
   514.400   1.8782E+00
   514.930   1.9121E+00
   515.460   1.8969E+00
   516.000   1.7840E+00
   516.530   1.6829E+00
   517.060   1.6981E+00
   517.600   1.7170E+00
   518.130   1.6762E+00
   518.670   1.6839E+00
   519.210   1.7805E+00
   519.750   1.8398E+00
   520.290   1.8397E+00
   520.830   1.8616E+00
   521.380   1.9019E+00
   521.920   1.8796E+00
   522.470   1.8354E+00
   523.010   1.8535E+00
   523.560   1.9043E+00
   524.110   1.9404E+00
   524.660   1.9690E+00
   525.210   1.9649E+00
   525.760   1.8594E+00
   526.320   1.7184E+00
   526.870   1.7111E+00
   527.430   1.8118E+00
   527.980   1.8833E+00
   528.540   1.9044E+00
   529.100   1.9146E+00
   529.660   1.9249E+00
   530.220   1.9457E+00
   530.790   1.9770E+00
   531.350   1.9729E+00
   531.910   1.8768E+00
   532.480   1.7917E+00
   533.050   1.8547E+00
   533.620   1.9175E+00
   534.190   1.8819E+00
   534.760   1.8953E+00
   535.330   1.9715E+00
   535.910   1.9603E+00
   536.480   1.8867E+00
   537.060   1.8687E+00
   537.630   1.8924E+00
   538.210   1.9090E+00
   538.790   1.8946E+00
   539.370   1.8493E+00
   539.960   1.7938E+00
   540.540   1.7865E+00
   541.130   1.8476E+00
   541.710   1.8777E+00
   542.300   1.8430E+00
   542.890   1.8458E+00
   543.480   1.8790E+00
   544.070   1.8884E+00
   544.660   1.8877E+00
   545.260   1.9004E+00
   545.850   1.9030E+00
   546.450   1.8854E+00
   547.050   1.8546E+00
   547.650   1.8405E+00
   548.250   1.8565E+00
   548.850   1.8856E+00
   549.450   1.8980E+00
   550.060   1.8806E+00
   550.660   1.8699E+00
   551.270   1.8723E+00
   551.880   1.8649E+00
   552.490   1.8543E+00
   553.100   1.8698E+00
   553.710   1.8917E+00
   554.320   1.9006E+00
   554.940   1.9094E+00
   555.560   1.8954E+00
   556.170   1.8492E+00
   556.790   1.8321E+00
   557.410   1.8474E+00
   558.040   1.8208E+00
   558.660   1.7911E+00
   559.280   1.8031E+00
   559.910   1.8309E+00
   560.540   1.8459E+00
   561.170   1.8355E+00
   561.800   1.8345E+00
   562.430   1.8525E+00
   563.060   1.8641E+00
   563.700   1.8662E+00
   564.330   1.8620E+00
   564.970   1.8327E+00
   565.610   1.8036E+00
   566.250   1.8182E+00
   566.890   1.8670E+00
   567.540   1.8814E+00
   568.180   1.8369E+00
   568.830   1.8327E+00
   569.480   1.8563E+00
   570.130   1.8090E+00
   570.780   1.7803E+00
   571.430   1.8222E+00
   572.080   1.8761E+00
   572.740   1.8962E+00
   573.390   1.8858E+00
   574.050   1.8754E+00
   574.710   1.8650E+00
   575.370   1.8396E+00
   576.040   1.8384E+00
   576.700   1.8582E+00
   577.370   1.8629E+00
   578.030   1.8197E+00
   578.700   1.7946E+00
   579.370   1.8232E+00
   580.050   1.8427E+00
   580.720   1.8444E+00
   581.400   1.8549E+00
   582.070   1.8713E+00
   582.750   1.8728E+00
   583.430   1.8655E+00
   584.110   1.8670E+00
   584.800   1.8393E+00
   585.480   1.7970E+00
   586.170   1.8132E+00
   586.850   1.8496E+00
   587.540   1.8482E+00
   588.240   1.7889E+00
   588.930   1.6751E+00
   589.620   1.6482E+00
   590.320   1.7734E+00
   591.020   1.8179E+00
   591.720   1.7936E+00
   592.420   1.8093E+00
   593.120   1.8107E+00
   593.820   1.7923E+00
   594.530   1.7795E+00
   595.240   1.7838E+00
   595.950   1.7992E+00
   596.660   1.8062E+00
   597.370   1.7907E+00
   598.090   1.7668E+00
   598.800   1.7682E+00
   599.520   1.7751E+00
   600.240   1.7569E+00
   600.960   1.7527E+00
   601.680   1.7457E+00
   602.410   1.7305E+00
   603.140   1.7648E+00
   603.860   1.7935E+00
   604.590   1.7810E+00
   605.330   1.7685E+00
   606.060   1.7642E+00
   606.800   1.7653E+00
   607.530   1.7611E+00
   608.270   1.7514E+00
   609.010   1.7498E+00
   609.760   1.7348E+00
   610.500   1.7145E+00
   611.250   1.7370E+00
   612.000   1.7328E+00
   612.750   1.6993E+00
   613.500   1.6898E+00
   614.250   1.7068E+00
   615.010   1.7265E+00
   615.760   1.6826E+00
   616.520   1.6285E+00
   617.280   1.6822E+00
   618.050   1.7304E+00
   618.810   1.7183E+00
   619.580   1.7167E+00
   620.350   1.7332E+00
   621.120   1.7108E+00
   621.890   1.7040E+00
   622.670   1.7075E+00
   623.440   1.6775E+00
   624.220   1.6605E+00
   625.000   1.6435E+00
   625.780   1.6547E+00
   626.570   1.6964E+00
   627.350   1.7024E+00
   628.140   1.7006E+00
   628.930   1.6938E+00
   629.720   1.6744E+00
   630.520   1.6526E+00
   631.310   1.6409E+00
   632.110   1.6443E+00
   632.910   1.6526E+00
   633.710   1.6584E+00
   634.520   1.6592E+00
   635.320   1.6599E+00
   636.130   1.6582E+00
   636.940   1.6589E+00
   637.760   1.6596E+00
   638.570   1.6578E+00
   639.390   1.6487E+00
   640.200   1.6323E+00
   641.030   1.6183E+00
   641.850   1.6166E+00
   642.670   1.6222E+00
   643.500   1.6277E+00
   644.330   1.6307E+00
   645.160   1.6313E+00
   645.990   1.6247E+00
   646.830   1.6109E+00
   647.670   1.5877E+00
   648.510   1.5669E+00
   649.350   1.5676E+00
   650.200   1.5896E+00
   651.040   1.6090E+00
   651.890   1.6143E+00
   652.740   1.6054E+00
   653.590   1.5942E+00
   654.450   1.5666E+00
   655.310   1.5067E+00
   656.170   1.4284E+00
   657.030   1.3968E+00
   657.890   1.4463E+00
   658.760   1.5301E+00
   659.630   1.5766E+00
   660.500   1.5816E+00
   661.380   1.5706E+00
   662.250   1.5619E+00
   663.130   1.5600E+00
   664.010   1.5627E+00
   664.890   1.5631E+00
   665.780   1.5544E+00
   666.670   1.5412E+00
   667.560   1.5416E+00
   668.450   1.5487E+00
   669.340   1.5468E+00
   670.240   1.5315E+00
   671.140   1.5208E+00
   672.040   1.5211E+00
   672.950   1.5237E+00
   673.850   1.5218E+00
   674.760   1.5155E+00
   675.680   1.5136E+00
   676.590   1.5117E+00
   677.510   1.5098E+00
   678.430   1.5057E+00
   679.350   1.5016E+00
   680.270   1.4975E+00
   681.200   1.4956E+00
   682.130   1.4915E+00
   683.060   1.4810E+00
   683.990   1.4684E+00
   684.930   1.4601E+00
   685.870   1.4625E+00
   686.810   1.4691E+00
   687.760   1.4714E+00
   688.710   1.4674E+00
   689.660   1.4591E+00
   690.610   1.4530E+00
   691.560   1.4511E+00
   692.520   1.4513E+00
   693.480   1.4514E+00
   694.440   1.4453E+00
   695.410   1.4351E+00
   696.380   1.4228E+00
   697.350   1.4230E+00
   698.320   1.4272E+00
   699.300   1.4233E+00
   700.280   1.4050E+00
   701.260   1.3889E+00
   702.250   1.3850E+00
   703.230   1.3952E+00
   704.230   1.4115E+00
   705.220   1.4176E+00
   706.210   1.4136E+00
   707.210   1.4016E+00
   708.220   1.3916E+00
   709.220   1.3877E+00
   710.230   1.3897E+00
   711.240   1.3877E+00
   712.250   1.3818E+00
   713.270   1.3759E+00
   714.290   1.3720E+00
   715.310   1.3681E+00
   716.330   1.3622E+00
   717.360   1.3525E+00
   718.390   1.3389E+00
   719.420   1.3293E+00
   720.460   1.3312E+00
   721.500   1.3389E+00
   722.540   1.3466E+00
   723.590   1.3541E+00
   724.640   1.3540E+00
   725.690   1.3463E+00
   726.740   1.3348E+00
   727.800   1.3253E+00
   728.860   1.3233E+00
   729.930   1.3251E+00
   730.990   1.3287E+00
   732.060   1.3267E+00
   733.140   1.3210E+00
   734.210   1.3152E+00
   735.290   1.3114E+00
   736.380   1.3112E+00
   737.460   1.3055E+00
   738.550   1.2888E+00
   739.640   1.2704E+00
   740.740   1.2630E+00
   741.840   1.2720E+00
   742.940   1.2863E+00
   744.050   1.2879E+00
   745.160   1.2823E+00
   746.270   1.2839E+00
   747.380   1.2836E+00
   748.500   1.2762E+00
   749.630   1.2688E+00
   750.750   1.2650E+00
   751.880   1.2630E+00
   753.010   1.2627E+00
   754.150   1.2607E+00
   755.290   1.2569E+00
   756.430   1.2531E+00
   757.580   1.2493E+00
   758.730   1.2438E+00
   759.880   1.2417E+00
   761.040   1.2397E+00
   762.200   1.2411E+00
   763.360   1.2459E+00
   764.530   1.2438E+00
   765.700   1.2195E+00
   766.870   1.1937E+00
   768.050   1.1934E+00
   769.230   1.2050E+00
   770.420   1.2080E+00
   771.600   1.2093E+00
   772.800   1.2106E+00
   773.990   1.2002E+00
   775.190   1.1915E+00
   776.400   1.1961E+00
   777.600   1.1973E+00
   778.820   1.1920E+00
   780.030   1.1899E+00
   781.250   1.1878E+00
   782.470   1.1825E+00
   783.700   1.1804E+00
   784.930   1.1816E+00
   786.160   1.1811E+00
   787.400   1.1790E+00
   788.640   1.1769E+00
   789.890   1.1700E+00
   791.140   1.1599E+00
   792.390   1.1499E+00
   793.650   1.1415E+00
   794.910   1.1379E+00
   796.180   1.1484E+00
   797.450   1.1511E+00
   798.720   1.1411E+00
   800.000   1.1406E+00
   801.280   1.1432E+00
   802.570   1.1364E+00
   803.860   1.1235E+00
   805.150   1.1199E+00
   806.450   1.1224E+00
   807.750   1.1127E+00
   809.060   1.0999E+00
   810.370   1.1086E+00
   811.690   1.1202E+00
   813.010   1.1180E+00
   814.330   1.1114E+00
   815.660   1.1108E+00
   816.990   1.1042E+00
   818.330   1.0782E+00
   819.670   1.0702E+00
   821.020   1.0815E+00
   822.370   1.0794E+00
   823.720   1.0759E+00
   825.080   1.0782E+00
   826.450   1.0790E+00
   827.810   1.0769E+00
   829.190   1.0748E+00
   830.560   1.0727E+00
   831.950   1.0518E+00
   833.330   1.0382E+00
   834.720   1.0491E+00
   836.120   1.0556E+00
   837.520   1.0493E+00
   838.930   1.0443E+00
   840.340   1.0451E+00
   841.750   1.0402E+00
   843.170   1.0296E+00
   844.590   1.0318E+00
   846.020   1.0353E+00
   847.460   1.0109E+00
   848.900   9.7832E-01
   850.340   9.9021E-01
   851.790   1.0034E+00
   853.240   9.5464E-01
   854.700   8.9389E-01
   856.160   9.5223E-01
   857.630   1.0142E+00
   859.110   9.9991E-01
   860.590   9.9513E-01
   862.070   9.9978E-01
   863.560   9.9768E-01
   865.050   9.6350E-01
   866.550   9.0024E-01
   868.060   9.1968E-01
   869.570   9.7733E-01
   871.080   9.8579E-01
   872.600   9.7973E-01
   874.130   9.7893E-01
   875.660   9.8334E-01
   877.190   9.7990E-01
   878.730   9.6351E-01
   880.280   9.5884E-01
   881.830   9.5418E-01
   883.390   9.5210E-01
   884.960   9.6023E-01
   886.520   9.5174E-01
   888.100   9.4710E-01
   889.680   9.4753E-01
   891.270   9.4290E-01
   892.860   9.3453E-01
   894.450   9.3494E-01
   896.060   9.3907E-01
   897.670   9.3075E-01
   899.280   9.1133E-01
   900.900   9.0559E-01
   902.530   9.0479E-01
   904.160   8.9786E-01
   905.800   8.9339E-01
   907.440   8.8287E-01
   909.090   8.6394E-01
   910.750   8.6803E-01
   912.410   8.7569E-01
   914.080   8.7130E-01
   915.750   8.6215E-01
   917.430   8.6018E-01
   919.120   8.5466E-01
   920.810   8.3383E-01
   922.510   8.2254E-01
   924.210   8.2302E-01
   925.930   8.2581E-01
   927.640   8.2973E-01
   929.370   8.3128E-01
   931.100   8.2704E-01
   932.840   8.2971E-01
   934.580   8.2204E-01
   936.330   8.0642E-01
   938.090   8.0454E-01
   939.850   8.0605E-01
   941.620   7.9400E-01
   943.400   7.8764E-01
   945.180   7.9699E-01
   946.970   7.9286E-01
   948.770   7.7986E-01
   950.570   7.7691E-01
   952.380   7.7396E-01
   954.200   7.6332E-01
   956.020   7.6698E-01
   957.850   7.7385E-01
   959.690   7.6981E-01
   961.540   7.6685E-01
   963.390   7.6714E-01
   965.250   7.6204E-01
   967.120   7.6017E-01
   968.990   7.7214E-01
   970.870   7.6597E-01
   972.760   7.6194E-01
   974.660   7.5372E-01
   976.560   7.6231E-01
   978.470   7.6874E-01
   980.390   7.6365E-01
   982.320   7.6377E-01
   984.250   7.7006E-01
   986.190   7.6189E-01
   988.140   7.6196E-01
   990.100   7.6610E-01
   992.060   7.5900E-01
   994.040   7.5599E-01
   996.020   7.4996E-01
   998.000   7.4196E-01
  1000.000   7.4400E-01
  1002.000   7.4501E-01
  1004.000   7.4302E-01
  1006.000   7.3905E-01
  1008.100   7.3706E-01
  1010.100   7.3507E-01
  1012.100   7.3406E-01
  1014.200   7.3109E-01
  1016.300   7.2522E-01
  1018.300   7.1746E-01
  1020.400   7.0878E-01
  1022.500   7.0493E-01
  1024.600   7.0586E-01
  1026.700   7.0771E-01
  1028.800   7.0292E-01
  1030.900   6.9344E-01
  1033.100   6.8778E-01
  1035.200   6.8960E-01
  1037.300   6.9140E-01
  1039.500   6.8760E-01
  1041.700   6.8291E-01
  1043.800   6.8190E-01
  1046.000   6.8454E-01
  1048.200   6.8259E-01
  1050.400   6.7248E-01
  1052.600   6.6063E-01
  1054.900   6.5426E-01
  1057.100   6.5060E-01
  1059.300   6.4696E-01
  1061.600   6.4334E-01
  1063.800   6.4149E-01
  1066.100   6.4229E-01
  1068.400   6.4218E-01
  1070.700   6.4031E-01
  1073.000   6.3757E-01
  1075.300   6.3397E-01
  1077.600   6.2953E-01
  1079.900   6.2510E-01
  1082.300   6.2070E-01
  1084.600   6.1631E-01
  1087.000   6.1449E-01
  1089.300   6.1435E-01
  1091.700   6.1251E-01
  1094.100   6.0733E-01
  1096.500   6.0052E-01
  1098.900   6.0120E-01
  1101.300   6.0598E-01
  1103.800   6.0660E-01
  1106.200   6.0311E-01
  1108.600   6.0125E-01
  1111.100   6.0264E-01
  1113.600   6.0077E-01
  1116.100   5.9328E-01
  1118.600   5.8664E-01
  1121.100   5.8163E-01
  1123.600   5.7665E-01
  1126.100   5.7169E-01
  1128.700   5.6755E-01
  1131.200   5.6656E-01
  1133.800   5.6555E-01
  1136.400   5.6376E-01
  1139.000   5.6120E-01
  1141.600   5.5788E-01
  1144.200   5.5687E-01
  1146.800   5.5660E-01
  1149.400   5.5102E-01
  1152.100   5.4623E-01
  1154.700   5.4897E-01
  1157.400   5.5315E-01
  1160.100   5.4837E-01
  1162.800   5.3917E-01
  1165.500   5.3225E-01
  1168.200   5.3050E-01
  1171.000   5.3240E-01
  1173.700   5.3209E-01
  1176.500   5.2742E-01
  1179.200   5.2063E-01
  1182.000   5.1532E-01
  1184.800   5.1217E-01
  1187.600   5.1187E-01
  1190.500   5.1227E-01
  1193.300   5.0983E-01
  1196.200   5.0460E-01
  1199.000   4.9941E-01
  1201.900   4.9632E-01
  1204.800   4.9532E-01
  1207.700   4.9362E-01
  1210.700   4.8919E-01
  1213.600   4.9226E-01
  1216.500   4.9865E-01
  1219.500   4.9354E-01
  1222.500   4.8177E-01
  1225.500   4.7875E-01
  1228.500   4.8237E-01
  1231.500   4.8396E-01
  1234.600   4.8092E-01
  1237.600   4.7724E-01
  1240.700   4.7748E-01
  1243.800   4.7382E-01
  1246.900   4.6761E-01
  1250.000   4.6976E-01
  1253.100   4.7315E-01
  1256.300   4.6697E-01
  1259.400   4.5517E-01
  1262.600   4.4410E-01
  1265.800   4.3937E-01
  1269.000   4.3714E-01
  1272.300   4.3925E-01
  1275.500   4.4870E-01
  1278.800   4.4886E-01
  1282.100   4.3744E-01
  1285.300   4.3399E-01
  1288.700   4.3899E-01
  1292.000   4.4152E-01
  1295.300   4.3984E-01
  1298.700   4.3815E-01
  1302.100   4.3765E-01
  1305.500   4.3303E-01
  1308.900   4.2610E-01
  1312.300   4.1981E-01
  1315.800   4.1645E-01
  1319.300   4.1598E-01
  1322.800   4.1551E-01
  1326.300   4.1274E-01
  1329.800   4.0829E-01
  1333.300   4.0388E-01
  1336.900   4.0060E-01
  1340.500   3.9847E-01
  1344.100   3.9689E-01
  1347.700   3.9365E-01
  1351.400   3.8880E-01
  1355.000   3.8397E-01
  1358.700   3.8135E-01
  1362.400   3.7767E-01
  1366.100   3.7240E-01
  1369.900   3.6930E-01
  1373.600   3.6887E-01
  1377.400   3.6790E-01
  1381.200   3.6483E-01
  1385.000   3.6438E-01
  1388.900   3.6236E-01
  1392.800   3.5829E-01
  1396.600   3.5681E-01
  1400.600   3.5482E-01
  1404.500   3.5182E-01
  1408.500   3.4934E-01
  1412.400   3.4637E-01
  1416.400   3.4442E-01
  1420.500   3.4297E-01
  1424.500   3.4546E-01
  1428.600   3.4545E-01
  1432.700   3.3715E-01
  1436.800   3.3182E-01
  1440.900   3.2848E-01
  1445.100   3.2180E-01
  1449.300   3.2042E-01
  1453.500   3.1903E-01
  1457.700   3.0965E-01
  1462.000   3.1440E-01
  1466.300   3.1303E-01
  1470.600   3.1073E-01
  1474.900   3.0937E-01
  1479.300   3.0572E-01
  1483.700   3.0164E-01
  1488.100   2.9895E-01
  1492.500   3.0211E-01
  1497.000   3.0031E-01
  1501.500   2.9674E-01
  1506.000   2.9540E-01
  1510.600   2.9187E-01
  1515.200   2.9011E-01
  1519.800   2.8792E-01
  1524.400   2.8789E-01
  1529.100   2.8785E-01
  1533.700   2.7972E-01
  1538.500   2.7463E-01
  1543.200   2.7462E-01
  1548.000   2.7376E-01
  1552.800   2.7290E-01
  1557.600   2.7162E-01
  1562.500   2.6870E-01
  1567.400   2.6336E-01
  1572.300   2.6009E-01
  1577.300   2.5886E-01
  1582.300   2.5523E-01
  1587.300   2.5163E-01
  1592.400   2.4688E-01
  1597.400   2.4610E-01
  1602.600   2.4609E-01
  1607.700   2.4296E-01
  1612.900   2.4371E-01
  1618.100   2.4252E-01
  1623.400   2.4133E-01
  1628.700   2.4316E-01
  1634.000   2.3971E-01
  1639.300   2.3591E-01
  1644.700   2.3437E-01
  1650.200   2.3466E-01
  1655.600   2.3385E-01
  1661.100   2.3339E-01
  1666.700   2.3004E-01
  1672.200   2.2708E-01
  1677.900   2.2094E-01
  1683.500   2.2017E-01
  1689.200   2.1904E-01
  1694.900   2.1652E-01
  1700.700   2.1574E-01
  1706.500   2.1291E-01
  1712.300   2.0566E-01
  1718.200   2.0967E-01
  1724.100   2.0184E-01
  1730.100   1.9277E-01
  1736.100   1.8944E-01
  1742.200   1.8978E-01
  1748.300   1.8584E-01
  1754.400   1.8779E-01
  1760.600   1.8615E-01
  1766.800   1.8196E-01
  1773.000   1.7654E-01
  1779.400   1.7213E-01
  1785.700   1.7028E-01
  1792.100   1.6969E-01
  1798.600   1.7157E-01
  1805.100   1.6850E-01
  1811.600   1.6241E-01
  1818.200   1.5972E-01
  1824.800   1.5766E-01
  1831.500   1.5532E-01
  1838.200   1.5152E-01
  1845.000   1.5188E-01
  1851.900   1.4842E-01
  1858.700   1.4443E-01
  1865.700   1.4250E-01
  1872.700   1.3630E-01
  1879.700   1.3727E-01
  1886.800   1.3848E-01
  1893.900   1.3744E-01
  1901.100   1.3502E-01
  1908.400   1.3619E-01
  1915.700   1.3679E-01
  1923.100   1.3385E-01
  1930.500   1.3202E-01
  1938.000   1.3073E-01
  1945.500   1.2787E-01
  1953.100   1.2504E-01
  1960.800   1.2433E-01
  1968.500   1.2516E-01
  1976.300   1.2725E-01
  1984.100   1.2447E-01
  1992.000   1.2197E-01
  2000.000   1.1925E-01
  2008.000   1.1383E-01
  2016.100   1.1391E-01
  2024.300   1.1250E-01
  2032.500   1.0990E-01
  2040.800   1.0756E-01
  2049.200   1.0502E-01
  2057.600   1.0180E-01
  2066.100   1.0003E-01
  2074.700   1.0060E-01
  2083.300   1.0022E-01
  2092.100   9.8020E-02
  2100.800   9.5388E-02
  2109.700   9.1892E-02
  2118.600   8.8445E-02
  2127.700   8.6151E-02
  2136.800   8.4981E-02
  2145.900   8.2736E-02
  2155.200   8.0951E-02
  2164.500   8.0255E-02
  2173.900   7.8080E-02
  2183.400   7.4886E-02
  2193.000   7.3193E-02
  2202.600   7.3583E-02
  2212.400   7.4980E-02
  2222.200   7.5330E-02
  2232.100   7.4260E-02
  2242.200   7.2803E-02
  2252.300   7.1758E-02
  2262.400   7.0917E-02
  2272.700   6.9890E-02
  2283.100   6.9064E-02
  2293.600   6.8435E-02
  2304.100   6.4606E-02
  2314.800   5.7480E-02
  2325.600   5.3066E-02
  2336.400   5.5138E-02
  2347.400   6.0613E-02
  2358.500   6.4360E-02
  2369.700   6.1973E-02
  2381.000   5.6095E-02
  2392.300   5.3291E-02
  2403.800   5.4340E-02
  2415.500   5.6561E-02
  2427.200   5.5676E-02
  2439.000   5.2111E-02
  2451.000   5.0772E-02
  2463.100   5.2253E-02
  2475.200   5.4024E-02
  2487.600   5.4299E-02
  2500.000   5.2000E-02
  2512.600   4.8313E-02
  2525.300   4.6261E-02
  2538.100   4.5950E-02
  2551.000   4.5485E-02
  2564.100   4.4413E-02
  2577.300   4.3056E-02
  2590.700   4.2166E-02
  2604.200   4.1583E-02
  2617.800   4.0859E-02
  2631.600   3.9854E-02
  2645.500   3.8864E-02
  2659.600   3.8454E-02
  2673.800   3.7906E-02
  2688.200   3.6949E-02
  2702.700   3.6005E-02
  2717.400   3.5346E-02
  2732.200   3.4963E-02
  2747.300   3.4581E-02
  2762.400   3.3940E-02
  2777.800   3.3048E-02
  2793.300   3.2169E-02
  2809.000   3.1684E-02
  2824.900   3.1204E-02
  2840.900   3.0480E-02
  2857.100   2.9522E-02
  2873.600   2.8823E-02
  2890.200   2.8373E-02
  2907.000   2.7927E-02
  2924.000   2.7253E-02
  2941.200   2.6357E-02
  2958.600   2.5705E-02
  2976.200   2.5289E-02
  2994.000   2.4877E-02
  3012.000   2.4360E-02
  3030.300   2.3958E-02
  3048.800   2.3561E-02
  3067.500   2.3168E-02
  3086.400   2.2570E-02
  3105.600   2.1774E-02
  3125.000   2.0992E-02
  3144.700   2.0528E-02
  3164.600   2.0171E-02
  3184.700   1.9818E-02
  3205.100   1.9469E-02
  3225.800   1.9124E-02
  3246.800   1.8878E-02
  3268.000   1.8727E-02
  3289.500   1.8391E-02
  3311.300   1.7967E-02
  3333.300   1.7460E-02
  3355.700   1.7050E-02
  3378.400   1.6735E-02
  3401.400   1.6423E-02
  3424.700   1.6030E-02
  3448.300   1.5559E-02
  3472.200   1.5096E-02
  3496.500   1.4641E-02
  3521.100   1.4357E-02
  3546.100   1.4076E-02
  3571.400   1.3798E-02
  3597.100   1.3525E-02
  3623.200   1.3255E-02
  3649.600   1.2913E-02
  3676.500   1.2577E-02
  3703.700   1.2247E-02
  3731.300   1.1923E-02
  3759.400   1.1533E-02
  3787.900   1.1221E-02
  3816.800   1.0983E-02
  3846.200   1.0681E-02
  3876.000   1.0451E-02
  3906.300   1.0224E-02
  3937.000   1.0000E-02
  3968.300   9.7796E-03
  4000.000   9.5000E-03
  4032.300   9.2256E-03
  4065.000   9.0169E-03
  4098.400   8.6923E-03
  4132.200   8.4332E-03
  4166.700   8.0640E-03
  4201.700   7.8169E-03
  4237.300   7.5190E-03
  4273.500   7.2825E-03
  4310.300   7.0509E-03
  4347.800   6.8241E-03
  4386.000   6.6020E-03
  4424.800   6.3334E-03
  4464.300   6.1215E-03
  4504.500   5.9141E-03
  4545.500   5.6628E-03
  4587.200   5.4177E-03
  4629.600   5.1788E-03
  4672.900   4.9918E-03
  4717.000   4.8090E-03
  4761.900   4.6305E-03
  4807.700   4.4562E-03
  4854.400   4.2860E-03
  4902.000   4.1033E-03
  4950.500   3.9457E-03
  5000.000   3.7880E-03
  5050.500   3.6421E-03
  5102.000   3.4997E-03
  5154.600   3.3571E-03
  5208.300   3.2219E-03
  5263.200   3.0902E-03
  5319.100   2.9583E-03
  5376.300   2.8334E-03
  5434.800   2.7153E-03
  5494.500   2.5969E-03
  5555.600   2.4851E-03
  5618.000   2.3731E-03
  5681.800   2.2674E-03
  5747.100   2.1647E-03
  5814.000   2.0679E-03
  5882.400   1.9710E-03
  5952.400   1.8797E-03
  6024.100   1.7911E-03
  6097.600   1.7052E-03
  6172.800   1.6245E-03
  6250.000   1.5462E-03
  6329.100   1.4704E-03
  6410.300   1.3993E-03
  6493.500   1.3281E-03
  6578.900   1.2638E-03
  6666.700   1.1992E-03
  6756.800   1.1368E-03
  6849.300   1.0786E-03
  6944.400   1.0223E-03
  7042.300   9.6787E-04
  7142.900   9.1532E-04
  7246.400   8.6460E-04
  7352.900   8.1567E-04
  7462.700   7.7031E-04
  7575.800   7.2484E-04
  7692.300   6.8276E-04
  7812.500   6.4225E-04
  7936.500   6.0329E-04
  8064.500   5.6737E-04
  8196.700   5.3136E-04
  8333.300   4.9824E-04
  8474.600   4.6645E-04
  8620.700   4.3597E-04
  8771.900   4.0677E-04
  8928.601   3.7883E-04
  9090.900   3.5211E-04
  9259.300   3.2776E-04
  9434.000   3.0450E-04
  9615.400   2.8230E-04
  9803.899   2.6114E-04
 10000.000   2.4100E-04
 10204.000   2.2281E-04
 10417.000   2.0460E-04
 10638.000   1.8821E-04
 10870.000   1.7351E-04
 11111.000   1.5876E-04
 11364.000   1.4481E-04
 11628.000   1.3239E-04
 11905.000   1.2066E-04
 12195.000   1.0960E-04
 12500.000   9.9840E-05
 12821.000   9.0043E-05
 13158.000   8.1442E-05
 13514.000   7.2831E-05
 13889.000   6.5318E-05
 14286.000   5.8310E-05
 14706.000   5.2251E-05
 15152.000   4.6174E-05
 15625.000   4.0837E-05
 16129.000   3.5980E-05
 16667.000   3.1536E-05
 17241.000   2.7517E-05
 17857.000   2.3896E-05
 18519.000   2.0645E-05
 19231.000   1.7765E-05
 20000.000   1.5225E-05
 20833.000   1.2879E-05
 21739.000   1.0855E-05
 22727.000   9.0605E-06
 23810.000   7.5146E-06
 25000.000   6.1760E-06
 26316.000   5.0251E-06
 27778.000   4.0435E-06
 29412.000   3.2137E-06
 31250.000   2.5190E-06
 33333.000   1.9440E-06
 35714.000   1.4739E-06
 38462.000   1.1019E-06
 41667.000   8.0064E-07
 45455.000   5.7112E-07
 50000.000   3.9120E-07
 55556.000   2.5758E-07
 62500.000   1.6205E-07
 71429.000   9.6040E-08
 83333.000   5.2560E-08
100000.000   2.5700E-08
