Ozone absorption cross section from Molina and Molina, JGR v.91, p14501 (1986).
units are 1.E-20 mc2/molecule  240.5 -> 350.0 by 0.5 (n=220)
	at three temperatures
wave(nm) 226K	263K	298K
*
240.5	842.4	837.	839.8
241	864.0	858.6	860.3
241.5	891.8	886.0	886.1
242	901.6	895.1	897.1
242.5	916.3	911.1	912.6
243	939.6	932.0	933.3
243.5	962.8	957.3	956.0
244	975.2	968.4	971.7
244.5	977.6	970.7	975.1
245	1007	994.8	993.2
245.5	1040	1028	1025
246	1042	1032	1033
246.5	1039	1035	1034
247	1058	1051	1047
247.5	1080	1069	1068
248	1079	1072	1071
248.5	1094	1082	1082
249	1124	1110	1112
249.5	1121	1110	1112
250	1134	1121	1124
250.5	1118	1110	1113
251	1123	1115	1114
251.5	1164	1153	1146
252	1165	1153	1155
252.5	1143	1137	1139
253	1149	1142	1140
253.5	1167	1155	1155
254	1169	1159	1159
254.5	1145	1136	1140
255	1174	1167	1161
255.5	1184	1176	1173
256	1158	1151	1154
256.5	1132	1125	1130
257	1147	1139	1139
257.5	1134	1126	1129
258	1130	1122	1124
258.5	1172	1164	1157
259	1151	1143	1145
259.5	1084	1083	1090
260	1086	1085	1080
260.5	1128	1120	1114
261	1095	1090	1094
261.5	1056	1054	1057
262	1064	1061	1057
262.5	1072	1067	1066
263	1016	1015	1022
263.5	994	994.7	995.9
264	1013	1010	1006
264.5	1013	1012	1007
265	961.2	960.5	965.7
265.5	968.3	965.6	965.0
266	946.7	943.4	948.5
266.5	920.6	920.0	922.1
267	877.9	878.0	884.1
267.5	900.5	895.1	893.8
268	872.2	871.1	875.4
268.5	829.3	830.1	836.3
269	803.8	803.7	810.4
269.5	820.8	822.0	815.1
270	796.1	798.2	798.0
270.5	754.4	755.5	763.6
271	736.7	736.5	741.5
271.5	724.8	726.6	726.6
272	710.7	711.4	714.7
272.5	684.2	687.6	689.9
273	666.0	675.4	669.8
273.5	640.1	642.1	646.0
274	601.3	609.9	614.0
274.5	592.7	597.5	596.8
275	587.1	586.1	591.3
275.5	562.9	561.0	560.6
276	537.9	539.5	545.0
276.5	519.6	523.3	522.1	
277	504.0	508.9	509.6
277.5	492.3	490.3	490.6
278	461.7	465.0	466.8
278.5	445.7	452.1	451.6
279	424.5	429.8	432.6
279.5	412.9	413.8	415.8
280	398.3	395.2	400.1
280.5	371.8	374.7	372.7
281	364.2	367.7	367.3
281.5	333.7	337.6	340.4
282	322.0	323.9	325.0
282.5	310.0	311.1	312.2
283	299.0	301.1	302.5
283.5	293.5	283.3	296.3
284	264.4	267.4	271.2
284.5	252.4	257.7	259.8
285	239.8	244.5	246.5
285.5	225.4	227.6	232.2
286	219.5	220.5	223.8
286.5	205.3	209.4	210.3
287	197.8	201.0	203.4
287.5	184.2	185.8	191.2
288	168.7	172.6	175.0
288.5	162.0	164.1	167.3
289	153.5	155.2	158.5
289.5	142.9	147.0	151.2
290	136.5	139.6	141.8
290.5	129.9	131.9	135.8
291	122.5	124.9	128.5
291.5	111.8	114.5	119.4
292	104.3	107.4	111.1
292.5	99.69	102.8	105.6
293	93.75	96.59	100.2
293.5	86.37	88.31	92.15
294	81.48	84.47	87.11
294.5	78.24	79.43	81.93
295	72.70	74.92	77.53
295.5	65.98	68.53	71.55
296	62.02	64.66	67.27
296.5	58.65	60.10	62.74
297	54.69	56.96	59.55
297.5	50.02	52.31	55.20
298	47.14	48.75	51.24
298.5	44.49	45.97	48.40
299	42.31	43.42	45.51
299.5	38.00	39.59	41.87
300	36.16	37.40	39.64
300.5	33.96	35.40	37.23
301	31.28	32.27	34.63
301.5	28.95	30.18	32.23
302	27.96	28.91	30.73
302.5	26.00	26.78	28.69
303	23.35	24.52	26.50
303.5	21.98	23.00	24.58
304	21.56	22.26	24.01
304.5	19.84	20.81	21.88
305	17.71	18.62	20.15
305.5	16.31	17.32	18.79
306	16.03	16.78	18.08
306.5	15.49	16.12	17.11
307	13.67	14.49	15.65
307.5	12.00	13.06	14.21
308	12.02	12.67	13.64
308.5	11.18	11.73	12.90
309	10.64	11.45	12.43
309.5	9.425	9.715	10.97
310	8.637	9.303	10.20
310.5	8.314	8.803	9.705
311	7.925	8.480	9.260
311.5	7.831	8.243	8.990
312	6.697	7.200	7.947
312.5	6.074	6.575	7.209
313	5.691	6.199	6.883
313.5	6.169	6.407	7.032
314	5.334	5.670	6.294
314.5	4.294	4.776	5.400
315	4.186	4.585	5.199
315.5	4.837	5.028	5.529
316	3.896	4.226	4.792
316.5	3.351	3.750	4.251
317	3.351	3.740	4.146
317.5	3.420	3.662	4.098
318	3.063	3.322	3.757
318.5	2.340	2.651	3.127
319	1.999	2.350	2.765
319.5	2.712	2.880	3.213
320	2.859	3.022	3.243
320.5	1.963	2.223	2.561
321	1.368	1.670	2.041
321.5	1.361	1.615	1.922
322	2.117	2.242	2.435
322.5	1.793	1.975	2.200
323	1.529	1.760	1.983
323.5	.8902	1.141	1.421
324	.7852	.9893	1.250
324.5	.9488	1.104	1.321
325	1.486	1.593	1.727
325.5	1.241	1.359	1.513
326	.7276	.9125	1.105
326.5	.4945	.6579	.8550
327	.6158	.7214	.8875
327.5	.6491	.7691	.9160
328	1.158	1.221	1.300
328.5	.6374	.7731	.9452
329	.3460	.4785	.6504
329.5	.2666	.3750	.5180
330	.2854	.3770	.4923
330.5	.5695	.6381	.7302
331	.7130	.7511	.8328
331.5	.4584	.5535	.6572
332	.2415	.3283	.4347
332.5	.1567	.2295	.3194
333	.2187	.2731	.3528
333.5	.3693	.4033	.4665
334	.3788	.4474	.5343
334.5	.2117	.2788	.3550
335	.1274	.1730	.2434
335.5	.0876	.1347	.1955
336	.0871	.1312	.1875
336.5	.1837	.2216	.2753
337	.2464	.2686	.3236
337.5	.2590	.2978	.3299
338	.1311	.1641	.2086
338.5	.0695	.1002	.1413
339	.0546	.0836	.1343
339.5	.0713	.1127	.1662
340	.1549	.1670	.2082
340.5	.1133	.1434	.1784
341	.0594	.0863	.1134
341.5	.0352	.0537	.0808
342	.0285	.0488	.0776
342.5	.0236	.0414	.0714
343	.0372	.0640	.0977
343.5	.0441	.0633	.0936
344	.1271	.1336	.1419
344.5	.0730	.0865	.0916
345	.0390	.0590	.0644
345.5	.0269	.0439	.0698
346	.0195	.0384	.0641
346.5	.0178	.0271	.0539
347	.0283	.0323	.0467
347.5	.0295	.0429	.0503
348	.0181	.0249	.0386
348.5	.0096	.0217	.0285
349	.0083	.0163	.0271
349.5	.0100	.0251	.0405
350	.0076	.0193	.0294
