glyoxal HCOHCO xross section
from John Orlando (acd/ncar) 11 July 2001
Orlando, J. J.; G. S. Tyndall, 2001:  The atmospheric chemistry of the
HC(O)CO radical. Int. J. Chem. Kinet., 33, 149-156.
wavelength(nm)
          cross section (cm2)
  210.00  3.08E-20
  210.50  2.61E-20
  211.00  2.28E-20
  211.50  1.99E-20
  212.00  1.75E-20
  212.50  1.60E-20
  213.00  1.43E-20
  213.50  1.32E-20
  214.00  1.24E-20
  214.50  1.14E-20
  215.00  1.06E-20
  215.50  1.01E-20
  216.00  9.61E-21
  216.50  8.71E-21
  217.00  8.76E-21
  217.50  8.30E-21
  218.00  8.03E-21
  218.50  7.64E-21
  219.00  7.18E-21
  219.50  7.13E-21
  220.00  6.57E-21
  220.50  6.57E-21
  221.00  6.41E-21
  221.50  6.54E-21
  222.00  6.16E-21
  222.50  6.00E-21
  223.00  5.86E-21
  223.50  5.87E-21
  224.00  5.52E-21
  224.50  5.62E-21
  225.00  5.60E-21
  225.50  5.66E-21
  226.00  5.60E-21
  226.50  5.49E-21
  227.00  5.29E-21
  227.50  5.38E-21
  228.00  5.47E-21
  228.50  5.43E-21
  229.00  5.46E-21
  229.50  5.49E-21
  230.00  5.73E-21
  230.50  5.58E-21
  231.00  5.71E-21
  231.50  5.65E-21
  232.00  5.71E-21
  232.50  5.95E-21
  233.00  6.01E-21
  233.50  6.17E-21
  234.00  6.19E-21
  234.50  6.28E-21
  235.00  6.34E-21
  235.50  6.39E-21
  236.00  6.45E-21
  236.50  6.53E-21
  237.00  6.81E-21
  237.50  6.93E-21
  238.00  7.28E-21
  238.50  7.53E-21
  239.00  7.62E-21
  239.50  7.70E-21
  240.00  7.89E-21
  240.50  7.89E-21
  241.00  8.01E-21
  241.50  8.15E-21
  242.00  8.24E-21
  242.50  8.49E-21
  243.00  8.65E-21
  243.50  8.94E-21
  244.00  9.11E-21
  244.50  9.33E-21
  245.00  9.62E-21
  245.50  9.88E-21
  246.00  1.02E-20
  246.50  1.04E-20
  247.00  1.06E-20
  247.50  1.08E-20
  248.00  1.10E-20
  248.50  1.12E-20
  249.00  1.13E-20
  249.50  1.14E-20
  250.00  1.15E-20
  250.50  1.16E-20
  251.00  1.18E-20
  251.50  1.21E-20
  252.00  1.25E-20
  252.50  1.29E-20
  253.00  1.33E-20
  253.50  1.37E-20
  254.00  1.41E-20
  254.50  1.44E-20
  255.00  1.46E-20
  255.50  1.48E-20
  256.00  1.50E-20
  256.50  1.51E-20
  257.00  1.52E-20
  257.50  1.54E-20
  258.00  1.56E-20
  258.50  1.58E-20
  259.00  1.60E-20
  259.50  1.62E-20
  260.00  1.65E-20
  260.50  1.69E-20
  261.00  1.73E-20
  261.50  1.77E-20
  262.00  1.82E-20
  262.50  1.87E-20
  263.00  1.91E-20
  263.50  1.96E-20
  264.00  1.99E-20
  264.50  2.03E-20
  265.00  2.05E-20
  265.50  2.06E-20
  266.00  2.08E-20
  266.50  2.09E-20
  267.00  2.10E-20
  267.50  2.12E-20
  268.00  2.13E-20
  268.50  2.16E-20
  269.00  2.18E-20
  269.50  2.22E-20
  270.00  2.26E-20
  270.50  2.32E-20
  271.00  2.37E-20
  271.50  2.43E-20
  272.00  2.48E-20
  272.50  2.54E-20
  273.00  2.59E-20
  273.50  2.63E-20
  274.00  2.67E-20
  274.50  2.71E-20
  275.00  2.75E-20
  275.50  2.77E-20
  276.00  2.80E-20
  276.50  2.82E-20
  277.00  2.84E-20
  277.50  2.85E-20
  278.00  2.85E-20
  278.50  2.86E-20
  279.00  2.88E-20
  279.50  2.89E-20
  280.00  2.92E-20
  280.50  2.95E-20
  281.00  3.00E-20
  281.50  3.05E-20
  282.00  3.10E-20
  282.50  3.15E-20
  283.00  3.22E-20
  283.50  3.27E-20
  284.00  3.33E-20
  284.50  3.38E-20
  285.00  3.43E-20
  285.50  3.50E-20
  286.00  3.52E-20
  286.50  3.54E-20
  287.00  3.55E-20
  287.50  3.56E-20
  288.00  3.57E-20
  288.50  3.57E-20
  289.00  3.53E-20
  289.50  3.52E-20
  290.00  3.49E-20
  290.50  3.45E-20
  291.00  3.43E-20
  291.50  3.44E-20
  292.00  3.44E-20
  292.50  3.47E-20
  293.00  3.46E-20
  293.50  3.48E-20
  294.00  3.52E-20
  294.50  3.56E-20
  295.00  3.58E-20
  295.50  3.61E-20
  296.00  3.61E-20
  296.50  3.67E-20
  297.00  3.73E-20
  297.50  3.80E-20
  298.00  3.85E-20
  298.50  3.90E-20
  299.00  3.87E-20
  299.50  3.84E-20
  300.00  3.80E-20
  300.50  3.71E-20
  301.00  3.68E-20
  301.50  3.62E-20
  302.00  3.53E-20
  302.50  3.44E-20
  303.00  3.36E-20
  303.50  3.25E-20
  304.00  3.16E-20
  304.50  3.11E-20
  305.00  3.07E-20
  305.50  3.06E-20
  306.00  3.08E-20
  306.50  3.05E-20
  307.00  3.04E-20
  307.50  3.02E-20
  308.00  2.99E-20
  308.50  2.97E-20
  309.00  2.96E-20
  309.50  2.97E-20
  310.00  2.94E-20
  310.50  2.99E-20
  311.00  3.05E-20
  311.50  3.10E-20
  312.00  3.15E-20
  312.50  3.19E-20
  313.00  3.13E-20
  313.50  3.04E-20
  314.00  3.00E-20
  314.50  2.83E-20
  315.00  2.63E-20
  315.50  2.53E-20
  316.00  2.48E-20
  316.50  2.35E-20
  317.00  2.33E-20
  317.50  2.25E-20
  318.00  2.05E-20
  318.50  1.92E-20
  319.00  1.82E-20
  319.50  1.78E-20
  320.00  1.77E-20
  320.50  1.75E-20
  321.00  1.79E-20
  321.50  1.72E-20
  322.00  1.68E-20
  322.50  1.68E-20
  323.00  1.61E-20
  323.50  1.61E-20
  324.00  1.58E-20
  324.50  1.55E-20
  325.00  1.52E-20
  325.50  1.48E-20
  326.00  1.58E-20
  326.50  1.64E-20
  327.00  1.64E-20
  327.50  1.77E-20
  328.00  1.78E-20
  328.50  1.74E-20
  329.00  1.70E-20
  329.50  1.60E-20
  330.00  1.51E-20
  330.50  1.28E-20
  331.00  1.07E-20
  331.50  1.04E-20
  332.00  9.79E-21
  332.50  9.08E-21
  333.00  9.37E-21
  333.50  9.25E-21
  334.00  8.50E-21
  334.50  7.77E-21
  335.00  6.80E-21
  335.50  6.29E-21
  336.00  6.04E-21
  336.50  5.82E-21
  337.00  5.73E-21
  337.50  5.89E-21
  338.00  6.13E-21
  338.50  5.65E-21
  339.00  5.65E-21
  339.50  5.76E-21
  340.00  5.17E-21
  340.50  5.06E-21
  341.00  5.27E-21
  341.50  4.91E-21
  342.00  4.85E-21
  342.50  4.83E-21
  343.00  4.74E-21
  343.50  5.59E-21
  344.00  6.27E-21
  344.50  5.73E-21
  345.00  6.24E-21
  345.50  7.25E-21
  346.00  6.71E-21
  346.50  5.82E-21
  347.00  6.39E-21
  347.50  6.89E-21
  348.00  4.94E-21
  348.50  4.18E-21
  349.00  3.83E-21
  349.50  3.66E-21
  350.00  3.62E-21
  350.50  3.62E-21
  351.00  3.64E-21
  351.50  3.65E-21
  352.00  4.18E-21
  352.50  4.11E-21
  353.00  3.80E-21
  353.50  3.72E-21
  354.00  3.76E-21
  354.50  3.88E-21
  355.00  4.10E-21
  355.50  4.11E-21
  356.00  4.06E-21
  356.50  3.97E-21
  357.00  4.18E-21
  357.50  4.31E-21
  358.00  4.45E-21
  358.50  4.56E-21
  359.00  4.69E-21
  359.50  4.77E-21
  360.00  5.18E-21
  360.50  5.60E-21
  361.00  6.05E-21
  361.50  6.56E-21
  362.00  6.50E-21
  362.50  6.16E-21
  363.00  5.98E-21
  363.50  6.29E-21
  364.00  6.37E-21
  364.50  6.31E-21
  365.00  6.38E-21
  365.50  6.75E-21
  366.00  6.92E-21
  366.50  7.36E-21
  367.00  8.26E-21
  367.50  8.93E-21
  368.00  9.68E-21
  368.50  9.58E-21
  369.00  1.01E-20
  369.50  1.04E-20
  370.00  1.07E-20
  370.50  1.14E-20
  371.00  1.10E-20
  371.50  1.11E-20
  372.00  1.07E-20
  372.50  1.11E-20
  373.00  1.15E-20
  373.50  1.20E-20
  374.00  1.29E-20
  374.50  1.28E-20
  375.00  1.26E-20
  375.50  1.33E-20
  376.00  1.33E-20
  376.50  1.35E-20
  377.00  1.41E-20
  377.50  1.52E-20
  378.00  1.52E-20
  378.50  1.42E-20
  379.00  1.50E-20
  379.50  1.76E-20
  380.00  1.90E-20
  380.50  2.06E-20
  381.00  2.42E-20
  381.50  2.16E-20
  382.00  1.91E-20
  382.50  2.04E-20
  383.00  1.96E-20
  383.50  1.91E-20
  384.00  1.86E-20
  384.50  1.87E-20
  385.00  1.86E-20
  385.50  1.76E-20
  386.00  1.84E-20
  386.50  2.01E-20
  387.00  2.27E-20
  387.50  2.57E-20
  388.00  2.95E-20
  388.50  3.28E-20
  389.00  3.06E-20
  389.50  3.03E-20
  390.00  3.45E-20
  390.50  3.68E-20
  391.00  3.78E-20
  391.50  3.54E-20
  392.00  3.75E-20
  392.50  3.06E-20
  393.00  2.86E-20
  393.50  3.07E-20
  394.00  3.09E-20
  394.50  3.51E-20
  395.00  3.80E-20
  395.50  3.59E-20
  396.00  3.62E-20
  396.50  3.45E-20
  397.00  3.32E-20
  397.50  3.90E-20
  398.00  4.13E-20
  398.50  4.21E-20
  399.00  4.14E-20
  399.50  4.05E-20
  400.00  3.79E-20
  400.50  3.96E-20
  401.00  4.51E-20
  401.50  5.10E-20
  402.00  5.78E-20
  402.50  6.64E-20
  403.00  6.80E-20
  403.50  6.34E-20
  404.00  6.05E-20
  404.50  5.14E-20
  405.00  4.36E-20
  405.50  4.39E-20
  406.00  4.28E-20
  406.50  4.45E-20
  407.00  4.05E-20
  407.50  3.51E-20
  408.00  3.51E-20
  408.50  3.88E-20
  409.00  4.11E-20
  409.50  4.85E-20
  410.00  5.63E-20
  410.50  6.03E-20
  411.00  7.05E-20
  411.50  7.56E-20
  412.00  6.69E-20
  412.50  7.89E-20
  413.00  1.01E-19
  413.50  9.18E-20
  414.00  9.24E-20
  414.50  9.52E-20
  415.00  9.32E-20
  415.50  7.03E-20
  416.00  5.87E-20
  416.50  6.01E-20
  417.00  6.68E-20
  417.50  7.36E-20
  418.00  7.65E-20
  418.50  8.13E-20
  419.00  8.50E-20
  419.50  6.84E-20
  420.00  5.25E-20
  420.50  5.67E-20
  421.00  6.79E-20
  421.50  6.12E-20
  422.00  7.04E-20
  422.50  1.03E-19
  423.00  1.09E-19
  423.50  8.19E-20
  424.00  8.00E-20
  424.50  8.96E-20
  425.00  9.62E-20
  425.50  1.18E-19
  426.00  1.40E-19
  426.50  1.47E-19
  427.00  1.36E-19
  427.50  1.66E-19
  428.00  1.64E-19
  428.50  1.12E-19
  429.00  6.07E-20
  429.50  6.27E-20
  430.00  7.28E-20
  430.50  6.67E-20
  431.00  6.41E-20
  431.50  6.71E-20
  432.00  5.67E-20
  432.50  5.17E-20
  433.00  5.46E-20
  433.50  5.38E-20
  434.00  6.09E-20
  434.50  7.88E-20
  435.00  7.14E-20
  435.50  8.16E-20
  436.00  1.09E-19
  436.50  1.27E-19
  437.00  7.86E-20
  437.50  7.52E-20
  438.00  1.08E-19
  438.50  1.24E-19
  439.00  1.02E-19
  439.50  1.18E-19
  440.00  1.65E-19
  440.50  1.64E-19
  441.00  1.07E-19
  441.50  8.59E-20
  442.00  8.46E-20
  442.50  8.42E-20
  443.00  9.67E-20
  443.50  1.05E-19
  444.00  1.12E-19
  444.50  1.12E-19
  445.00  1.29E-19
  445.50  1.04E-19
  446.00  6.79E-20
  446.50  4.60E-20
  447.00  3.75E-20
  447.50  3.71E-20
  448.00  3.98E-20
  448.50  4.33E-20
  449.00  5.23E-20
  449.50  5.35E-20
  450.00  7.22E-20
